time,TP9,AF7,AF8,TP10,Right AUX
1699138366.5271215,-33.203125,-29.78515625,-35.64453125,-33.69140625,0.0
1699138366.531016,-42.48046875,-29.78515625,-36.62109375,-30.2734375,0.0
1699138366.5349107,-35.15625,-33.69140625,-45.8984375,-25.87890625,0.0
1699138366.5388052,-19.04296875,-41.9921875,-44.43359375,-28.80859375,0.0
1699138366.5426998,-11.23046875,-37.59765625,-33.69140625,-26.85546875,0.0
1699138366.5465944,-35.64453125,-35.15625,-32.71484375,-32.2265625,0.0
1699138366.550489,-23.4375,-30.76171875,-36.62109375,-24.4140625,0.0
1699138366.5543835,-17.08984375,-25.390625,-32.71484375,-23.4375,0.0
1699138366.558278,-14.6484375,-22.94921875,-26.85546875,-17.578125,0.0
1699138366.5621724,-28.3203125,-16.11328125,-32.2265625,-18.5546875,0.0
1699138366.566067,-38.0859375,-19.04296875,-34.66796875,-26.3671875,0.0
1699138366.5699615,-22.4609375,-29.78515625,-35.15625,-26.85546875,0.0
1699138366.573987,-8.30078125,-26.85546875,-43.9453125,-25.87890625,0.0
1699138366.5778816,-15.625,-31.25,-43.9453125,-23.4375,0.0
1699138366.5817761,-30.2734375,-42.96875,-29.296875,-25.390625,0.0
1699138366.5856707,-13.18359375,-35.64453125,-22.94921875,-26.3671875,0.0
1699138366.5895653,-10.25390625,-27.34375,-37.109375,-22.94921875,0.0
1699138366.5934598,-20.5078125,-40.0390625,-38.0859375,-23.92578125,0.0
1699138366.5973544,-39.0625,-40.52734375,-25.390625,-31.73828125,0.0
1699138366.601249,-32.71484375,-25.390625,-31.73828125,-21.97265625,0.0
1699138366.6051435,-24.4140625,-28.80859375,-41.50390625,-13.671875,0.0
1699138366.609038,-20.99609375,-35.64453125,-30.2734375,-20.99609375,0.0
1699138366.6129327,-46.38671875,-36.1328125,-20.01953125,-38.0859375,0.0
1699138366.6168272,-53.7109375,-33.69140625,-29.296875,-38.57421875,0.0
1699138366.620931,-43.45703125,-43.45703125,-38.57421875,-39.0625,0.0
1699138366.6248255,-29.296875,-50.29296875,-23.92578125,-33.203125,0.0
1699138366.62872,-49.8046875,-42.96875,-22.94921875,-35.15625,0.0
1699138366.6326146,-69.3359375,-42.48046875,-27.83203125,-41.50390625,0.0
1699138366.6365094,-51.7578125,-41.015625,-28.80859375,-38.0859375,0.0
1699138366.640404,-35.15625,-36.1328125,-36.62109375,-38.0859375,0.0
1699138366.6442986,-51.26953125,-38.57421875,-38.0859375,-40.52734375,0.0
1699138366.6481931,-65.91796875,-42.48046875,-38.0859375,-47.8515625,0.0
1699138366.6520877,-38.57421875,-25.390625,-37.109375,-41.9921875,0.0
1699138366.6559823,-19.53125,-20.5078125,-33.69140625,-39.0625,0.0
1699138366.6598768,-19.04296875,-30.76171875,-37.59765625,-41.50390625,0.0
1699138366.6637714,-32.71484375,-20.5078125,-34.1796875,-44.921875,0.0
1699138366.667784,-26.85546875,-13.671875,-17.578125,-43.9453125,0.0
1699138366.6716785,-18.5546875,-28.3203125,-23.4375,-41.015625,0.0
1699138366.675573,-12.6953125,-37.109375,-47.36328125,-43.45703125,0.0
1699138366.679468,-40.0390625,-31.25,-36.62109375,-53.22265625,0.0
1699138366.6833625,-45.41015625,-28.80859375,-28.80859375,-56.15234375,0.0
1699138366.687257,-26.3671875,-19.53125,-32.71484375,-46.38671875,0.0
1699138366.6911516,-9.765625,-25.390625,-33.203125,-35.15625,0.0
1699138366.6950464,-25.87890625,-40.52734375,-35.64453125,-34.1796875,0.0
1699138366.698941,-43.45703125,-30.2734375,-34.66796875,-34.1796875,0.0
1699138366.7028356,-31.25,-16.11328125,-31.73828125,-33.69140625,0.0
1699138366.7067301,-24.4140625,-22.94921875,-31.73828125,-28.3203125,0.0
1699138366.7106247,-34.1796875,-35.15625,-29.78515625,-22.4609375,0.0
1699138366.7146199,-58.10546875,-28.80859375,-25.390625,-30.2734375,0.0
1699138366.7185144,-46.38671875,-33.69140625,-30.76171875,-26.3671875,0.0
1699138366.7224092,-33.69140625,-39.0625,-34.66796875,-20.5078125,0.0
1699138366.7263038,-31.73828125,-32.2265625,-31.73828125,-19.04296875,0.0
1699138366.7301984,-44.43359375,-31.73828125,-24.90234375,-19.53125,0.0
1699138366.7340932,-44.43359375,-34.66796875,-24.4140625,-24.90234375,0.0
1699138366.7379878,-33.69140625,-29.78515625,-25.87890625,-24.4140625,0.0
1699138366.7418823,-25.390625,-30.2734375,-20.5078125,-20.5078125,0.0
1699138366.745777,-50.78125,-33.203125,-31.73828125,-32.2265625,0.0
1699138366.7496717,-58.59375,-34.66796875,-37.109375,-31.25,0.0
1699138366.7535663,-43.45703125,-38.57421875,-18.5546875,-23.92578125,0.0
1699138366.7574608,-33.69140625,-39.0625,-4.8828125,-14.6484375,0.0
1699138366.7614625,-54.19921875,-33.69140625,-15.625,-19.53125,0.0
1699138366.765357,-69.82421875,-43.45703125,-23.92578125,-33.69140625,0.0
1699138366.7692518,-59.5703125,-39.55078125,-11.71875,-29.296875,0.0
1699138366.7731464,-46.875,-37.59765625,-8.30078125,-22.94921875,0.0
1699138366.7770412,-41.015625,-43.45703125,-16.6015625,-24.90234375,0.0
1699138366.7809358,-56.15234375,-42.48046875,-33.203125,-38.0859375,0.0
1699138366.7848303,-39.0625,-41.9921875,-38.0859375,-32.71484375,0.0
1699138366.7887251,-11.71875,-32.2265625,-44.921875,-19.04296875,0.0
1699138366.7926197,-8.7890625,-28.80859375,-46.875,-20.99609375,0.0
1699138366.7965143,-31.25,-33.69140625,-40.0390625,-28.80859375,0.0
1699138366.800409,-23.4375,-31.25,-39.0625,-31.25,0.0
1699138366.8043036,-8.30078125,-22.94921875,-30.2734375,-30.2734375,0.0
1699138366.808387,3.90625,-16.11328125,-33.203125,-22.4609375,0.0
1699138366.8122816,-18.06640625,-15.13671875,-32.71484375,-26.85546875,0.0
1699138366.8161764,-17.08984375,-12.20703125,-32.71484375,-25.87890625,0.0
1699138366.820071,-0.9765625,-19.04296875,-40.0390625,-23.92578125,0.0
1699138366.8239658,-0.9765625,-23.4375,-37.59765625,-34.1796875,0.0
1699138366.8278604,-24.4140625,-25.390625,-32.71484375,-38.0859375,0.0
1699138366.8317552,-45.8984375,-27.83203125,-40.0390625,-36.1328125,0.0
1699138366.8356497,-25.390625,-38.0859375,-50.29296875,-33.69140625,0.0
1699138366.8395445,-7.8125,-43.45703125,-47.36328125,-32.2265625,0.0
1699138366.8434393,-11.71875,-22.94921875,-39.55078125,-30.76171875,0.0
1699138366.847334,-37.59765625,-17.578125,-36.1328125,-37.109375,0.0
1699138366.8512287,-39.0625,-28.80859375,-23.92578125,-37.109375,0.0
1699138366.8552918,-29.296875,-36.1328125,-21.484375,-31.25,0.0
1699138366.8591864,-30.2734375,-35.64453125,-33.69140625,-33.69140625,0.0
1699138366.8630812,-62.5,-30.2734375,-26.85546875,-40.0390625,0.0
1699138366.866976,-60.05859375,-34.1796875,-19.53125,-44.43359375,0.0
1699138366.8708706,-43.9453125,-39.0625,-24.90234375,-44.921875,0.0
1699138366.8747654,-40.52734375,-40.0390625,-31.73828125,-37.109375,0.0
1699138366.87866,-58.59375,-42.48046875,-40.52734375,-42.96875,0.0
1699138366.8825548,-62.5,-43.9453125,-34.66796875,-49.8046875,0.0
1699138366.8864496,-52.734375,-36.1328125,-26.85546875,-52.24609375,0.0
1699138366.8903441,-35.64453125,-28.3203125,-24.90234375,-44.921875,0.0
1699138366.894239,-47.36328125,-36.1328125,-23.92578125,-44.921875,0.0
1699138366.8981338,-72.75390625,-39.0625,-36.1328125,-52.734375,0.0
1699138366.9021792,-46.875,-36.62109375,-39.55078125,-41.9921875,0.0
1699138366.9060738,-20.01953125,-36.62109375,-37.109375,-33.69140625,0.0
1699138366.9099686,-23.4375,-34.66796875,-25.390625,-37.109375,0.0
1699138366.9138634,-40.0390625,-34.1796875,-16.6015625,-37.109375,0.0
1699138366.9177582,-25.87890625,-36.1328125,-34.66796875,-27.83203125,0.0
1699138366.9216528,-6.34765625,-29.296875,-50.29296875,-22.4609375,0.0
1699138366.9255476,-1.46484375,-23.4375,-41.9921875,-19.04296875,0.0
1699138366.9294424,-21.484375,-20.5078125,-23.4375,-29.296875,0.0
1699138366.9333372,-13.671875,-20.5078125,-20.5078125,-25.390625,0.0
1699138366.9372318,-2.44140625,-20.5078125,-23.4375,-14.6484375,0.0
1699138366.9411266,3.41796875,-22.94921875,-23.4375,-16.6015625,0.0
1699138366.9450214,-14.16015625,-24.4140625,-30.2734375,-15.625,0.0
1699138366.9490495,-20.5078125,-36.62109375,-27.34375,-13.18359375,0.0
1699138366.9529443,-12.6953125,-46.38671875,-20.01953125,-17.08984375,0.0
1699138366.9568388,-9.765625,-41.015625,-10.7421875,-21.97265625,0.0
1699138366.9607337,-24.90234375,-46.38671875,-19.04296875,-28.80859375,0.0
1699138366.9646285,-49.31640625,-40.0390625,-33.203125,-31.73828125,0.0
1699138366.9685233,-44.43359375,-34.1796875,-36.1328125,-25.87890625,0.0
1699138366.972418,-37.109375,-29.296875,-24.4140625,-18.06640625,0.0
1699138366.9763129,-36.1328125,-25.390625,-9.27734375,-16.11328125,0.0
1699138366.9802074,-60.546875,-38.0859375,-13.18359375,-20.5078125,0.0
1699138366.9841022,-56.15234375,-36.62109375,-21.97265625,-17.578125,0.0
1699138366.987997,-44.921875,-31.25,-23.4375,-20.01953125,0.0
1699138366.9918919,-39.55078125,-35.15625,-22.4609375,-26.3671875,0.0
1699138366.9959009,-61.5234375,-34.1796875,-22.94921875,-35.15625,0.0
1699138366.9997957,-65.4296875,-39.55078125,-20.01953125,-30.2734375,0.0
1699138367.0036905,-45.8984375,-43.9453125,-34.1796875,-22.94921875,0.0
1699138367.007585,-36.1328125,-37.109375,-45.41015625,-30.2734375,0.0
1699138367.0114799,-62.5,-31.25,-36.1328125,-46.38671875,0.0
1699138367.0153747,-74.70703125,-24.4140625,-31.25,-51.7578125,0.0
1699138367.0192695,-56.640625,-18.5546875,-28.80859375,-45.8984375,0.0
1699138367.0231643,-42.48046875,-38.57421875,-29.78515625,-40.0390625,0.0
1699138367.027059,-50.78125,-51.7578125,-38.0859375,-45.8984375,0.0
1699138367.030954,-61.5234375,-28.3203125,-39.0625,-51.7578125,0.0
1699138367.0348487,-41.9921875,-17.578125,-31.73828125,-40.0390625,0.0
1699138367.0387435,-24.90234375,-30.2734375,-24.90234375,-33.203125,0.0
1699138367.0427604,-18.5546875,-38.57421875,-26.85546875,-31.25,0.0
1699138367.0466552,-39.55078125,-26.85546875,-43.9453125,-38.0859375,0.0
1699138367.05055,-34.66796875,-17.578125,-43.45703125,-40.0390625,0.0
1699138367.0544448,-25.390625,-19.53125,-25.87890625,-38.0859375,0.0
1699138367.0583396,-13.671875,-25.390625,-20.5078125,-36.62109375,0.0
1699138367.0622344,-31.25,-24.4140625,-22.4609375,-43.9453125,0.0
1699138367.0661292,-37.59765625,-19.04296875,-23.92578125,-39.55078125,0.0
1699138367.070024,-21.484375,-32.2265625,-22.94921875,-29.296875,0.0
1699138367.0739188,-5.37109375,-39.0625,-22.94921875,-25.390625,0.0
1699138367.0778136,-19.04296875,-28.80859375,-23.92578125,-33.69140625,0.0
1699138367.0817084,-31.73828125,-22.94921875,-19.53125,-39.55078125,0.0
1699138367.0856032,-11.71875,-28.3203125,-18.06640625,-32.2265625,0.0
1699138367.0896983,1.953125,-25.87890625,-20.99609375,-27.34375,0.0
1699138367.0935931,-8.30078125,-20.99609375,-31.73828125,-33.203125,0.0
1699138367.097488,-29.296875,-21.97265625,-44.43359375,-36.62109375,0.0
1699138367.1013827,-18.06640625,-25.87890625,-37.59765625,-31.25,0.0
1699138367.1052775,-11.23046875,-28.3203125,-30.2734375,-27.83203125,0.0
1699138367.1091723,-13.18359375,-35.15625,-38.57421875,-27.83203125,0.0
1699138367.1130674,-36.62109375,-40.0390625,-34.66796875,-35.64453125,0.0
1699138367.1169622,-41.015625,-27.83203125,-23.92578125,-31.73828125,0.0
1699138367.120857,-32.71484375,-25.390625,-20.99609375,-28.80859375,0.0
1699138367.1247518,-26.3671875,-29.296875,-28.3203125,-29.296875,0.0
1699138367.1286466,-44.43359375,-18.5546875,-35.15625,-33.69140625,0.0
1699138367.1325414,-50.29296875,-25.390625,-29.78515625,-36.62109375,0.0
1699138367.1365232,-36.62109375,-33.203125,-28.3203125,-30.76171875,0.0
1699138367.140418,-19.53125,-28.3203125,-34.1796875,-19.53125,0.0
1699138367.1443129,-29.78515625,-21.484375,-49.31640625,-26.3671875,0.0
1699138367.1482077,-40.0390625,-12.6953125,-52.24609375,-29.296875,0.0
1699138367.1521025,-18.06640625,-18.5546875,-50.29296875,-19.53125,0.0
1699138367.1559975,-2.9296875,-26.3671875,-56.640625,-19.04296875,0.0
1699138367.1598923,-4.39453125,-36.1328125,-36.1328125,-24.90234375,0.0
1699138367.1637871,-24.90234375,-39.0625,-19.53125,-34.1796875,0.0
1699138367.167682,-15.13671875,-29.296875,-22.94921875,-24.90234375,0.0
1699138367.1715767,-12.20703125,-31.25,-45.8984375,-20.99609375,0.0
1699138367.1754718,-17.08984375,-28.80859375,-55.17578125,-32.71484375,0.0
1699138367.1793666,-28.80859375,-19.53125,-37.109375,-34.1796875,0.0
1699138367.1833324,-23.92578125,-14.6484375,-35.15625,-24.4140625,0.0
1699138367.1872272,-19.04296875,-13.671875,-43.9453125,-25.87890625,0.0
1699138367.191122,-17.578125,-21.484375,-37.59765625,-29.296875,0.0
1699138367.1950169,-43.9453125,-23.92578125,-32.2265625,-43.45703125,0.0
1699138367.198912,-44.43359375,-31.25,-24.4140625,-43.9453125,0.0
1699138367.2028067,-25.390625,-37.109375,-25.87890625,-34.66796875,0.0
1699138367.2067015,-19.53125,-33.69140625,-36.62109375,-30.2734375,0.0
1699138367.2105963,-30.2734375,-32.71484375,-43.45703125,-31.73828125,0.0
1699138367.2144914,-41.9921875,-28.80859375,-41.50390625,-30.76171875,0.0
1699138367.2183862,-32.71484375,-37.59765625,-38.0859375,-25.87890625,0.0
1699138367.222281,-25.87890625,-37.109375,-35.15625,-24.4140625,0.0
1699138367.226176,-37.59765625,-33.203125,-29.78515625,-30.2734375,0.0
1699138367.2302194,-63.4765625,-38.0859375,-24.90234375,-39.0625,0.0
1699138367.2341142,-50.78125,-31.25,-22.4609375,-33.203125,0.0
1699138367.238009,-41.015625,-38.0859375,-21.97265625,-37.109375,0.0
1699138367.241904,-41.9921875,-48.828125,-23.4375,-42.48046875,0.0
1699138367.2457988,-65.4296875,-41.015625,-24.90234375,-45.8984375,0.0
1699138367.2496936,-70.3125,-39.0625,-22.94921875,-43.45703125,0.0
1699138367.2535887,-50.78125,-43.45703125,-22.4609375,-39.55078125,0.0
1699138367.2574835,-32.71484375,-40.52734375,-30.2734375,-37.59765625,0.0
1699138367.2613783,-58.10546875,-44.43359375,-45.41015625,-46.38671875,0.0
1699138367.2652733,-62.01171875,-45.8984375,-37.59765625,-46.875,0.0
1699138367.2691681,-36.62109375,-43.45703125,-30.76171875,-41.015625,0.0
1699138367.273063,-34.66796875,-36.1328125,-52.24609375,-41.015625,0.0
1699138367.277113,-50.29296875,-31.25,-45.8984375,-42.48046875,0.0
1699138367.281008,-57.12890625,-42.96875,-21.484375,-46.38671875,0.0
1699138367.2849028,-45.41015625,-41.9921875,-20.5078125,-45.41015625,0.0
1699138367.2887979,-32.71484375,-33.69140625,-27.34375,-36.62109375,0.0
1699138367.2926927,-26.3671875,-30.2734375,-32.71484375,-37.109375,0.0
1699138367.2965877,-44.921875,-38.57421875,-39.55078125,-46.38671875,0.0
1699138367.3004825,-37.109375,-39.55078125,-53.7109375,-40.0390625,0.0
1699138367.3043776,-19.53125,-29.296875,-51.26953125,-27.83203125,0.0
1699138367.3082724,-13.671875,-32.71484375,-25.390625,-17.578125,0.0
1699138367.3121674,-36.62109375,-20.5078125,-28.80859375,-22.94921875,0.0
1699138367.3160622,-26.3671875,-20.5078125,-43.45703125,-23.92578125,0.0
1699138367.3199573,-11.71875,-37.59765625,-26.3671875,-19.53125,0.0
1699138367.3239899,-6.34765625,-30.2734375,-19.04296875,-20.99609375,0.0
1699138367.3278847,-12.6953125,-23.4375,-29.296875,-23.92578125,0.0
1699138367.3317797,-15.625,-22.94921875,-31.73828125,-19.04296875,0.0
1699138367.3356745,-3.41796875,-20.5078125,-29.78515625,-10.7421875,0.0
1699138367.3395696,3.41796875,-18.5546875,-30.2734375,-9.27734375,0.0
1699138367.3434646,-16.11328125,-23.92578125,-26.3671875,-20.99609375,0.0
1699138367.3473594,-34.1796875,-30.76171875,-22.4609375,-34.1796875,0.0
1699138367.3512545,-13.671875,-38.0859375,-26.3671875,-21.484375,0.0
1699138367.3551493,-10.25390625,-42.96875,-31.25,-11.23046875,0.0
1699138367.3590443,-16.11328125,-30.76171875,-33.203125,-20.01953125,0.0
1699138367.3629391,-33.69140625,-21.97265625,-28.3203125,-24.4140625,0.0
1699138367.3668342,-33.203125,-28.3203125,-21.97265625,-18.06640625,0.0
1699138367.370848,-17.08984375,-29.78515625,-29.296875,-8.30078125,0.0
1699138367.374743,-10.7421875,-30.2734375,-35.64453125,-7.8125,0.0
1699138367.3786378,-41.9921875,-37.109375,-36.62109375,-29.78515625,0.0
1699138367.3825328,-42.96875,-35.64453125,-35.64453125,-33.203125,0.0
1699138367.3864279,-39.0625,-26.85546875,-37.109375,-27.34375,0.0
1699138367.3903227,-26.3671875,-26.85546875,-37.59765625,-27.83203125,0.0
1699138367.3942177,-27.83203125,-36.62109375,-39.55078125,-34.66796875,0.0
1699138367.3981128,-33.69140625,-38.57421875,-42.96875,-32.71484375,0.0
1699138367.4020076,-20.01953125,-36.1328125,-41.015625,-20.5078125,0.0
1699138367.4059026,-15.13671875,-24.90234375,-41.9921875,-19.04296875,0.0
1699138367.4097977,-20.01953125,-21.484375,-44.43359375,-20.5078125,0.0
1699138367.4136925,-40.52734375,-32.71484375,-40.0390625,-24.4140625,0.0
1699138367.4177842,-30.2734375,-29.78515625,-38.57421875,-21.484375,0.0
1699138367.4216793,-6.34765625,-28.80859375,-37.109375,-12.6953125,0.0
1699138367.4255743,3.90625,-41.015625,-25.87890625,-6.8359375,0.0
1699138367.4294693,-16.6015625,-41.9921875,-29.296875,-18.5546875,0.0
1699138367.4333642,-19.04296875,-41.015625,-33.203125,-23.4375,0.0
1699138367.4372592,-9.27734375,-38.57421875,-18.5546875,-17.08984375,0.0
1699138367.4411542,0.9765625,-33.203125,-24.4140625,-16.11328125,0.0
1699138367.4450493,-17.578125,-31.73828125,-38.57421875,-20.01953125,0.0
1699138367.4489443,-25.87890625,-27.83203125,-32.2265625,-14.6484375,0.0
1699138367.4528391,-17.578125,-41.015625,-27.83203125,-20.99609375,0.0
1699138367.4567342,-4.8828125,-42.96875,-20.01953125,-19.53125,0.0
1699138367.4606292,-18.06640625,-29.296875,-17.578125,-19.53125,0.0
1699138367.4646337,-41.50390625,-23.4375,-15.13671875,-26.3671875,0.0
1699138367.4685287,-22.94921875,-12.20703125,-6.8359375,-17.08984375,0.0
1699138367.4724236,-1.953125,-10.25390625,-15.13671875,-11.23046875,0.0
1699138367.4763186,-10.7421875,-14.16015625,-19.04296875,-9.27734375,0.0
1699138367.4802136,-30.76171875,-11.71875,-8.30078125,-18.06640625,0.0
1699138367.4841087,-30.76171875,-27.83203125,-12.20703125,-22.94921875,0.0
1699138367.4880037,-25.87890625,-30.76171875,-24.4140625,-18.5546875,0.0
1699138367.4918988,-20.99609375,-20.01953125,-28.80859375,-19.04296875,0.0
1699138367.4957938,-44.921875,-26.85546875,-24.90234375,-29.296875,0.0
1699138367.4996889,-46.38671875,-23.4375,-14.6484375,-26.3671875,0.0
1699138367.5035837,-43.9453125,-24.4140625,-15.625,-26.3671875,0.0
1699138367.5074787,-41.50390625,-24.90234375,-21.97265625,-28.3203125,0.0
1699138367.511467,-49.8046875,-19.04296875,-24.4140625,-27.83203125,0.0
1699138367.515362,-54.19921875,-29.296875,-31.25,-28.80859375,0.0
1699138367.519257,-48.33984375,-27.83203125,-22.4609375,-23.4375,0.0
1699138367.523152,-36.62109375,-19.53125,-7.8125,-26.85546875,0.0
1699138367.5270472,-50.29296875,-29.78515625,-16.11328125,-36.1328125,0.0
1699138367.5309422,-62.01171875,-37.109375,-25.87890625,-35.15625,0.0
1699138367.534837,-47.8515625,-32.71484375,-26.85546875,-32.71484375,0.0
1699138367.538732,-41.9921875,-29.78515625,-35.64453125,-38.57421875,0.0
1699138367.542627,-34.66796875,-37.59765625,-28.80859375,-44.43359375,0.0
1699138367.5465221,-43.9453125,-38.57421875,-30.2734375,-46.38671875,0.0
1699138367.5504172,-34.1796875,-20.5078125,-35.64453125,-40.0390625,0.0
1699138367.5543122,-24.4140625,-21.484375,-18.06640625,-33.69140625,0.0
1699138367.5583742,-20.01953125,-26.85546875,-19.04296875,-28.3203125,0.0
1699138367.5622692,-43.45703125,-19.04296875,-31.25,-37.109375,0.0
1699138367.5661643,-38.57421875,-23.4375,-41.9921875,-37.59765625,0.0
1699138367.5700593,-23.4375,-25.87890625,-59.08203125,-34.66796875,0.0
1699138367.5739543,-25.87890625,-24.4140625,-49.31640625,-42.96875,0.0
1699138367.5778494,-49.8046875,-31.73828125,-29.78515625,-44.921875,0.0
1699138367.5817444,-52.24609375,-35.64453125,-33.203125,-39.0625,0.0
1699138367.5856395,-30.2734375,-32.71484375,-31.73828125,-37.109375,0.0
1699138367.5895345,-20.5078125,-37.109375,-26.3671875,-34.66796875,0.0
1699138367.5934296,-24.4140625,-38.0859375,-24.4140625,-36.62109375,0.0
1699138367.5973246,-37.109375,-20.01953125,-22.94921875,-37.109375,0.0
1699138367.6012197,-31.25,-8.30078125,-22.94921875,-29.78515625,0.0
1699138367.6052678,-24.4140625,-19.53125,-24.4140625,-25.390625,0.0
1699138367.6091628,-28.80859375,-36.62109375,-20.5078125,-27.34375,0.0
1699138367.6130579,-53.22265625,-37.59765625,-21.97265625,-38.57421875,0.0
1699138367.616953,-51.7578125,-33.69140625,-40.0390625,-39.55078125,0.0
1699138367.620848,-37.59765625,-30.2734375,-41.9921875,-31.73828125,0.0
1699138367.624743,-35.15625,-34.66796875,-36.1328125,-24.90234375,0.0
1699138367.628638,-54.19921875,-39.55078125,-25.390625,-35.15625,0.0
1699138367.6325333,-46.38671875,-31.73828125,-12.6953125,-33.69140625,0.0
1699138367.6364284,-30.76171875,-26.3671875,-13.18359375,-15.625,0.0
1699138367.6403234,-23.92578125,-26.85546875,-20.01953125,-11.71875,0.0
1699138367.6442184,-43.45703125,-38.0859375,-20.01953125,-27.83203125,0.0
1699138367.6481135,-50.78125,-42.48046875,-14.6484375,-34.1796875,0.0
1699138367.6521459,-34.1796875,-28.80859375,-15.13671875,-24.90234375,0.0
1699138367.6560411,-26.85546875,-34.66796875,-17.578125,-23.92578125,0.0
1699138367.6599362,-38.0859375,-41.9921875,-17.08984375,-31.25,0.0
1699138367.6638312,-48.33984375,-30.76171875,-18.5546875,-42.96875,0.0
1699138367.6677263,-30.2734375,-32.2265625,-30.76171875,-34.66796875,0.0
1699138367.6716216,-13.18359375,-26.85546875,-36.1328125,-17.578125,0.0
1699138367.6755166,-18.06640625,-19.04296875,-31.73828125,-21.97265625,0.0
1699138367.6794116,-47.8515625,-22.4609375,-22.4609375,-34.66796875,0.0
1699138367.6833067,-50.29296875,-29.296875,-17.08984375,-31.25,0.0
1699138367.687202,-42.96875,-36.1328125,-20.99609375,-29.296875,0.0
1699138367.691097,-38.0859375,-41.015625,-23.4375,-34.1796875,0.0
1699138367.694992,-61.5234375,-42.48046875,-31.73828125,-49.8046875,0.0
1699138367.6990268,-62.5,-42.48046875,-34.1796875,-51.26953125,0.0
1699138367.7029219,-43.9453125,-36.1328125,-38.57421875,-44.921875,0.0
1699138367.706817,-35.64453125,-33.69140625,-32.71484375,-41.9921875,0.0
1699138367.7107122,-59.08203125,-30.2734375,-26.85546875,-52.24609375,0.0
1699138367.7146072,-71.77734375,-36.1328125,-42.48046875,-63.4765625,0.0
1699138367.7185023,-43.9453125,-38.0859375,-39.0625,-49.31640625,0.0
1699138367.7223976,-24.4140625,-32.71484375,-34.1796875,-33.203125,0.0
1699138367.7262926,-39.0625,-33.203125,-37.59765625,-38.57421875,0.0
1699138367.7301877,-52.734375,-31.25,-37.59765625,-44.921875,0.0
1699138367.734083,-41.015625,-36.62109375,-46.875,-37.59765625,0.0
1699138367.737978,-32.71484375,-37.109375,-42.48046875,-36.62109375,0.0
1699138367.741873,-32.71484375,-33.203125,-25.390625,-41.015625,0.0
1699138367.745894,-59.08203125,-32.2265625,-27.34375,-47.8515625,0.0
1699138367.7497892,-54.19921875,-34.1796875,-43.45703125,-48.33984375,0.0
1699138367.7536843,-41.015625,-32.71484375,-43.9453125,-46.38671875,0.0
1699138367.7575796,-31.25,-30.2734375,-40.52734375,-43.45703125,0.0
1699138367.7614746,-51.26953125,-35.64453125,-41.015625,-52.734375,0.0
1699138367.76537,-50.29296875,-35.64453125,-46.875,-48.33984375,0.0
1699138367.769265,-35.15625,-26.85546875,-47.36328125,-35.64453125,0.0
1699138367.77316,-26.3671875,-28.3203125,-33.69140625,-27.83203125,0.0
1699138367.7770553,-41.9921875,-32.71484375,-26.85546875,-32.71484375,0.0
1699138367.7809503,-59.08203125,-29.78515625,-24.90234375,-39.55078125,0.0
1699138367.7848456,-45.41015625,-32.71484375,-32.2265625,-31.73828125,0.0
1699138367.7887406,-36.62109375,-40.52734375,-40.52734375,-28.80859375,0.0
1699138367.7927418,-39.55078125,-29.296875,-32.2265625,-31.73828125,0.0
1699138367.7966368,-50.78125,-17.578125,-31.73828125,-39.55078125,0.0
1699138367.800532,-42.48046875,-29.296875,-30.76171875,-38.0859375,0.0
1699138367.8044271,-33.203125,-40.0390625,-24.90234375,-30.2734375,0.0
1699138367.8083224,-31.25,-32.2265625,-31.73828125,-32.71484375,0.0
1699138367.8122175,-52.734375,-20.99609375,-34.1796875,-43.9453125,0.0
1699138367.8161128,-38.57421875,-21.97265625,-24.90234375,-33.203125,0.0
1699138367.8200078,-21.484375,-36.1328125,-13.18359375,-20.5078125,0.0
1699138367.823903,-21.484375,-48.33984375,-16.6015625,-23.4375,0.0
1699138367.8277981,-41.9921875,-39.55078125,-23.4375,-39.0625,0.0
1699138367.8316934,-41.015625,-30.76171875,-20.99609375,-41.9921875,0.0
1699138367.8355885,-24.90234375,-29.78515625,-19.04296875,-29.78515625,0.0
1699138367.8395786,-15.625,-42.96875,-29.296875,-23.4375,0.0
1699138367.8434737,-31.25,-47.36328125,-26.3671875,-30.2734375,0.0
1699138367.847369,-41.9921875,-26.85546875,-11.71875,-33.69140625,0.0
1699138367.8512642,-24.4140625,-24.4140625,-18.5546875,-23.92578125,0.0
1699138367.8551593,-10.7421875,-34.1796875,-21.484375,-20.5078125,0.0
1699138367.8590546,-14.16015625,-22.4609375,-18.06640625,-22.94921875,0.0
1699138367.8629496,-32.71484375,-13.18359375,-13.671875,-24.90234375,0.0
1699138367.866845,-23.92578125,-13.671875,-10.25390625,-26.85546875,0.0
1699138367.87074,-12.6953125,-8.30078125,-11.71875,-27.34375,0.0
1699138367.8746352,-13.18359375,-14.16015625,-23.92578125,-29.78515625,0.0
1699138367.8785305,-34.66796875,-33.69140625,-41.015625,-44.43359375,0.0
1699138367.8824255,-33.203125,-39.55078125,-37.59765625,-43.9453125,0.0
1699138367.8864176,-26.3671875,-39.0625,-35.64453125,-45.8984375,0.0
1699138367.890313,-23.92578125,-44.921875,-33.69140625,-47.8515625,0.0
1699138367.894208,-49.8046875,-42.48046875,-29.78515625,-54.19921875,0.0
1699138367.8981032,-57.12890625,-37.109375,-33.203125,-59.08203125,0.0
1699138367.9019985,-48.33984375,-39.0625,-33.69140625,-47.8515625,0.0
1699138367.9058936,-39.55078125,-46.875,-37.109375,-47.36328125,0.0
1699138367.9097888,-49.31640625,-37.59765625,-39.55078125,-56.640625,0.0
1699138367.9136841,-65.91796875,-28.3203125,-41.9921875,-65.4296875,0.0
1699138367.9175792,-50.78125,-35.64453125,-38.0859375,-56.15234375,0.0
1699138367.9214745,-34.66796875,-41.9921875,-37.59765625,-34.66796875,0.0
1699138367.9253695,-39.55078125,-48.828125,-41.50390625,-32.71484375,0.0
1699138367.9292648,-62.98828125,-58.10546875,-34.1796875,-37.59765625,0.0
1699138367.9332392,-47.8515625,-63.96484375,-34.1796875,-34.1796875,0.0
1699138367.9371345,-29.296875,-55.17578125,-22.94921875,-30.2734375,0.0
1699138367.9410298,-24.4140625,-30.76171875,-4.8828125,-33.69140625,0.0
1699138367.9449248,-47.8515625,-26.85546875,-14.6484375,-40.0390625,0.0
1699138367.94882,-44.43359375,-30.2734375,-30.2734375,-34.66796875,0.0
1699138367.9527154,-30.2734375,-25.87890625,-21.97265625,-30.76171875,0.0
1699138367.9566104,-21.484375,-25.390625,-8.7890625,-27.34375,0.0
1699138367.9605057,-40.0390625,-29.78515625,-17.578125,-36.62109375,0.0
1699138367.964401,-55.17578125,-37.109375,-32.2265625,-34.66796875,0.0
1699138367.9682963,-41.9921875,-38.0859375,-28.3203125,-28.80859375,0.0
1699138367.9721913,-24.4140625,-33.203125,-20.01953125,-30.2734375,0.0
1699138367.9760866,-36.62109375,-34.1796875,-15.13671875,-35.15625,0.0
1699138367.980139,-53.7109375,-39.0625,-7.32421875,-39.0625,0.0
1699138367.9840343,-34.66796875,-40.52734375,-6.34765625,-27.34375,0.0
1699138367.9879296,-19.04296875,-35.64453125,-14.16015625,-23.92578125,0.0
1699138367.9918249,-13.671875,-31.73828125,-21.484375,-24.4140625,0.0
1699138367.9957201,-29.296875,-20.5078125,-22.4609375,-23.92578125,0.0
1699138367.9996152,-21.97265625,-20.01953125,-31.25,-16.11328125,0.0
1699138368.0035105,-4.8828125,-24.90234375,-36.1328125,-12.20703125,0.0
1699138368.0074058,8.30078125,-26.3671875,-24.90234375,-11.71875,0.0
1699138368.011301,-16.6015625,-25.87890625,-15.13671875,-20.01953125,0.0
1699138368.0151963,-22.4609375,-20.5078125,-18.5546875,-19.04296875,0.0
1699138368.0190914,-8.7890625,-28.80859375,-25.87890625,-19.04296875,0.0
1699138368.0229867,3.41796875,-35.15625,-25.390625,-17.578125,0.0
1699138368.0270207,-18.06640625,-25.390625,-31.25,-22.4609375,0.0
1699138368.030916,-36.62109375,-20.01953125,-41.015625,-39.55078125,0.0
1699138368.0348113,-22.94921875,-22.94921875,-35.64453125,-48.33984375,0.0
1699138368.0387065,-14.16015625,-21.484375,-40.0390625,-43.9453125,0.0
1699138368.0426018,-16.11328125,-21.484375,-60.05859375,-32.71484375,0.0
1699138368.0464969,-30.76171875,-24.90234375,-50.29296875,-37.59765625,0.0
1699138368.0503922,-26.85546875,-20.99609375,-29.78515625,-35.64453125,0.0
1699138368.0542874,-18.06640625,-29.296875,-21.484375,-21.97265625,0.0
1699138368.0581827,-20.99609375,-43.9453125,-18.06640625,-20.99609375,0.0
1699138368.062078,-47.8515625,-35.64453125,-15.625,-31.73828125,0.0
1699138368.0659733,-41.9921875,-30.2734375,-20.5078125,-28.80859375,0.0
1699138368.0698686,-18.5546875,-41.015625,-34.66796875,-24.90234375,0.0
1699138368.0738847,-14.6484375,-35.15625,-32.71484375,-23.4375,0.0
1699138368.07778,-42.48046875,-28.3203125,-33.69140625,-26.85546875,0.0
1699138368.0816753,-47.36328125,-39.0625,-29.78515625,-24.90234375,0.0
1699138368.0855706,-39.55078125,-35.64453125,-17.08984375,-15.625,0.0
1699138368.0894659,-34.1796875,-27.83203125,-21.97265625,-11.23046875,0.0
1699138368.0933611,-48.828125,-40.52734375,-22.94921875,-27.83203125,0.0
1699138368.0972564,-50.29296875,-44.921875,-16.11328125,-28.80859375,0.0
1699138368.1011517,-31.25,-37.109375,-18.5546875,-19.04296875,0.0
1699138368.105047,-20.01953125,-45.8984375,-23.92578125,-17.578125,0.0
1699138368.108942,-35.15625,-43.45703125,-31.73828125,-18.5546875,0.0
1699138368.1128373,-55.17578125,-27.34375,-39.0625,-26.85546875,0.0
1699138368.1167326,-38.0859375,-26.3671875,-32.71484375,-29.296875,0.0
1699138368.1208248,-21.484375,-29.296875,-24.4140625,-24.90234375,0.0
1699138368.12472,-16.11328125,-35.15625,-32.2265625,-26.3671875,0.0
1699138368.1286154,-33.69140625,-30.2734375,-28.3203125,-35.15625,0.0
1699138368.1325107,-20.01953125,-25.87890625,-15.13671875,-26.85546875,0.0
1699138368.136406,-8.30078125,-28.3203125,-13.18359375,-26.3671875,0.0
1699138368.1403015,-5.859375,-38.57421875,-30.76171875,-31.25,0.0
1699138368.1441967,-24.4140625,-39.55078125,-38.0859375,-32.2265625,0.0
1699138368.148092,-29.296875,-38.0859375,-27.83203125,-27.83203125,0.0
1699138368.1519873,-14.16015625,-33.69140625,-30.2734375,-24.4140625,0.0
1699138368.1558826,-3.41796875,-18.5546875,-29.296875,-19.04296875,0.0
1699138368.1597779,-20.01953125,-20.5078125,-26.3671875,-22.94921875,0.0
1699138368.1636732,-34.66796875,-20.5078125,-24.90234375,-24.4140625,0.0
1699138368.1676805,-20.01953125,-21.484375,-26.85546875,-14.16015625,0.0
1699138368.1715758,-10.7421875,-27.34375,-37.109375,-9.765625,0.0
1699138368.175471,-17.578125,-23.4375,-34.66796875,-13.18359375,0.0
1699138368.1793664,-32.2265625,-15.625,-27.34375,-18.5546875,0.0
1699138368.1832616,-21.484375,-15.625,-35.64453125,-18.06640625,0.0
1699138368.187157,-13.671875,-23.92578125,-41.015625,-15.625,0.0
1699138368.1910524,-18.06640625,-33.69140625,-34.66796875,-18.5546875,0.0
1699138368.1949477,-45.41015625,-39.0625,-38.57421875,-32.71484375,0.0
1699138368.198843,-43.45703125,-40.52734375,-32.2265625,-34.66796875,0.0
1699138368.2027383,-26.85546875,-40.52734375,-20.5078125,-22.94921875,0.0
1699138368.2066336,-23.4375,-45.41015625,-26.3671875,-18.06640625,0.0
1699138368.210529,-46.875,-25.390625,-29.296875,-29.296875,0.0
1699138368.2145197,-50.29296875,-17.08984375,-30.2734375,-32.71484375,0.0
1699138368.218415,-36.62109375,-33.203125,-34.66796875,-26.85546875,0.0
1699138368.2223103,-29.78515625,-35.15625,-33.203125,-26.3671875,0.0
1699138368.2262058,-45.8984375,-32.71484375,-31.73828125,-33.69140625,0.0
1699138368.230101,-58.10546875,-27.34375,-27.34375,-38.57421875,0.0
1699138368.2339964,-48.828125,-30.76171875,-16.6015625,-41.015625,0.0
1699138368.2378917,-36.62109375,-47.8515625,-23.92578125,-42.96875,0.0
1699138368.2417872,-40.0390625,-45.8984375,-45.8984375,-47.8515625,0.0
1699138368.2456825,-61.5234375,-27.34375,-37.109375,-55.17578125,0.0
1699138368.2495778,-48.33984375,-31.25,-15.625,-52.24609375,0.0
1699138368.253473,-35.15625,-34.66796875,-18.06640625,-51.26953125,0.0
1699138368.2573686,-25.87890625,-27.34375,-25.87890625,-51.7578125,0.0
1699138368.2613652,-48.828125,-21.484375,-31.73828125,-60.05859375,0.0
1699138368.2652607,-55.17578125,-22.94921875,-33.69140625,-48.828125,0.0
1699138368.269156,-36.1328125,-23.4375,-29.296875,-35.15625,0.0
1699138368.2730513,-20.01953125,-23.92578125,-39.55078125,-36.62109375,0.0
1699138368.2769468,-41.9921875,-20.99609375,-43.45703125,-42.96875,0.0
1699138368.280842,-54.6875,-25.87890625,-28.80859375,-36.62109375,0.0
1699138368.2847373,-43.9453125,-41.50390625,-34.66796875,-30.2734375,0.0
1699138368.2886329,-30.76171875,-34.1796875,-32.2265625,-30.76171875,0.0
1699138368.2925282,-43.45703125,-31.73828125,-24.4140625,-37.59765625,0.0
1699138368.2964234,-59.5703125,-32.71484375,-24.90234375,-37.59765625,0.0
1699138368.300319,-43.45703125,-28.3203125,-15.13671875,-31.25,0.0
1699138368.3042142,-26.85546875,-41.015625,-13.18359375,-26.3671875,0.0
1699138368.3081949,-26.85546875,-39.55078125,-20.01953125,-23.92578125,0.0
1699138368.3120904,-48.33984375,-33.69140625,-21.484375,-26.85546875,0.0
1699138368.3159857,-45.8984375,-31.73828125,-25.87890625,-20.01953125,0.0
1699138368.3198812,-40.52734375,-20.5078125,-32.71484375,-15.625,0.0
1699138368.3237765,-32.2265625,-32.2265625,-31.73828125,-16.11328125,0.0
1699138368.3276718,-50.29296875,-44.43359375,-25.390625,-22.4609375,0.0
1699138368.3315673,-51.7578125,-35.15625,-21.97265625,-24.4140625,0.0
1699138368.3354626,-30.76171875,-28.3203125,-21.484375,-17.08984375,0.0
1699138368.3393579,-23.92578125,-29.296875,-15.625,-8.7890625,0.0
1699138368.3432534,-41.015625,-34.1796875,-10.25390625,-14.16015625,0.0
1699138368.3471487,-39.55078125,-34.1796875,-12.6953125,-20.5078125,0.0
1699138368.3510442,-23.4375,-26.85546875,-23.92578125,-14.16015625,0.0
1699138368.3550997,-10.7421875,-35.64453125,-27.34375,-11.71875,0.0
1699138368.3589952,-14.6484375,-44.921875,-27.34375,-29.296875,0.0
1699138368.3628905,-22.4609375,-21.484375,-38.0859375,-37.109375,0.0
1699138368.366786,-13.671875,-11.23046875,-39.0625,-31.73828125,0.0
1699138368.3706813,-3.41796875,-17.578125,-32.71484375,-34.66796875,0.0
1699138368.3745768,0.48828125,-19.53125,-44.921875,-38.57421875,0.0
1699138368.378472,-20.01953125,-13.671875,-39.55078125,-43.45703125,0.0
1699138368.3823676,-14.16015625,-12.6953125,-16.6015625,-42.96875,0.0
1699138368.386263,-4.39453125,-12.20703125,-11.71875,-37.109375,0.0
1699138368.3901584,-10.7421875,-13.18359375,-20.5078125,-36.62109375,0.0
1699138368.3940537,-44.43359375,-14.6484375,-23.92578125,-47.36328125,0.0
1699138368.3979492,-52.24609375,-24.4140625,-23.92578125,-45.8984375,0.0
1699138368.4019866,-34.66796875,-26.3671875,-35.64453125,-41.015625,0.0
1699138368.405882,-26.85546875,-20.5078125,-42.96875,-42.48046875,0.0
1699138368.4097774,-47.8515625,-34.1796875,-52.734375,-48.828125,0.0
1699138368.4136727,-58.59375,-35.15625,-52.24609375,-54.19921875,0.0
1699138368.4175682,-41.50390625,-37.59765625,-25.87890625,-47.36328125,0.0
1699138368.4214637,-37.59765625,-41.9921875,-17.578125,-46.38671875,0.0
1699138368.425359,-55.6640625,-41.015625,-29.296875,-48.828125,0.0
1699138368.4292545,-72.75390625,-42.96875,-33.69140625,-44.921875,0.0
1699138368.4331498,-57.6171875,-43.45703125,-22.4609375,-42.96875,0.0
1699138368.4370453,-46.38671875,-41.015625,-13.671875,-36.1328125,0.0
1699138368.4409409,-44.43359375,-37.109375,-17.08984375,-31.73828125,0.0
1699138368.4448361,-61.03515625,-40.52734375,-25.390625,-39.0625,0.0
1699138368.448858,-57.6171875,-38.0859375,-23.4375,-33.69140625,0.0
1699138368.4527533,-42.48046875,-32.2265625,-15.625,-28.3203125,0.0
1699138368.4566488,-29.296875,-36.62109375,-18.06640625,-27.34375,0.0
1699138368.4605443,-57.12890625,-53.22265625,-22.94921875,-34.1796875,0.0
1699138368.4644396,-67.3828125,-50.29296875,-23.92578125,-35.15625,0.0
1699138368.4683352,-48.828125,-39.55078125,-24.90234375,-34.66796875,0.0
1699138368.4722307,-29.296875,-40.0390625,-24.90234375,-30.2734375,0.0
1699138368.476126,-33.69140625,-44.921875,-24.90234375,-31.73828125,0.0
1699138368.4800215,-35.15625,-48.828125,-30.76171875,-27.34375,0.0
1699138368.483917,-17.08984375,-41.50390625,-32.2265625,-20.5078125,0.0
1699138368.4878123,-7.32421875,-27.34375,-32.2265625,-26.3671875,0.0
1699138368.4917078,-10.7421875,-22.4609375,-49.8046875,-30.2734375,0.0
1699138368.4957125,-32.2265625,-21.97265625,-46.875,-39.0625,0.0
1699138368.4996078,-22.4609375,-22.94921875,-29.78515625,-42.48046875,0.0
1699138368.5035033,-6.34765625,-19.53125,-24.4140625,-37.109375,0.0
1699138368.5073988,-1.46484375,-17.08984375,-27.83203125,-33.69140625,0.0
1699138368.5112941,-23.4375,-25.390625,-37.109375,-47.36328125,0.0
1699138368.5151896,-20.99609375,-24.90234375,-36.1328125,-49.31640625,0.0
1699138368.5190852,-17.578125,-25.390625,-35.64453125,-39.55078125,0.0
1699138368.5229807,-24.4140625,-36.62109375,-37.109375,-30.76171875,0.0
1699138368.526876,-41.015625,-34.66796875,-32.2265625,-26.85546875,0.0
1699138368.5307715,-40.52734375,-30.2734375,-27.34375,-27.34375,0.0
1699138368.534667,-34.66796875,-27.83203125,-28.80859375,-33.203125,0.0
1699138368.5385625,-31.73828125,-27.83203125,-29.78515625,-31.73828125,0.0
1699138368.5426407,-52.24609375,-30.2734375,-32.2265625,-35.64453125,0.0
1699138368.5465362,-70.80078125,-25.87890625,-33.203125,-41.50390625,0.0
1699138368.5504317,-57.12890625,-32.2265625,-37.109375,-28.80859375,0.0
1699138368.5543272,-41.015625,-35.15625,-32.2265625,-19.04296875,0.0
1699138368.5582225,-39.55078125,-33.203125,-26.3671875,-23.4375,0.0
1699138368.562118,-62.5,-39.0625,-37.59765625,-29.78515625,0.0
1699138368.5660136,-61.5234375,-37.109375,-38.0859375,-32.2265625,0.0
1699138368.569909,-44.921875,-42.48046875,-37.109375,-25.87890625,0.0
1699138368.5738046,-38.0859375,-41.015625,-32.71484375,-26.85546875,0.0
1699138368.5777001,-54.19921875,-28.3203125,-16.11328125,-36.62109375,0.0
1699138368.5815957,-47.8515625,-31.73828125,-26.85546875,-35.15625,0.0
1699138368.585491,-32.2265625,-20.99609375,-38.0859375,-30.76171875,0.0
1699138368.5895102,-19.04296875,-18.5546875,-33.69140625,-28.80859375,0.0
1699138368.5934057,-42.48046875,-41.9921875,-31.73828125,-43.9453125,0.0
1699138368.5973012,-48.828125,-34.66796875,-30.2734375,-40.0390625,0.0
1699138368.6011965,-25.390625,-17.578125,-19.04296875,-24.90234375,0.0
1699138368.605092,-8.7890625,-23.92578125,-22.94921875,-19.53125,0.0
1699138368.6089876,-19.53125,-31.25,-29.296875,-24.90234375,0.0
1699138368.612883,-31.25,-25.390625,-31.73828125,-32.2265625,0.0
1699138368.6167786,-19.04296875,-19.53125,-35.64453125,-37.109375,0.0
1699138368.6206741,-12.20703125,-17.578125,-39.55078125,-37.59765625,0.0
1699138368.6245697,-15.625,-20.01953125,-41.015625,-37.109375,0.0
1699138368.6284652,-34.1796875,-28.80859375,-42.48046875,-37.59765625,0.0
1699138368.6323607,-22.94921875,-27.34375,-52.24609375,-27.83203125,0.0
1699138368.63634,-11.23046875,-26.85546875,-44.43359375,-29.78515625,0.0
1699138368.6402354,-12.6953125,-28.80859375,-31.25,-36.1328125,0.0
1699138368.644131,-30.2734375,-23.4375,-24.90234375,-39.0625,0.0
1699138368.6480265,-33.69140625,-27.34375,-24.90234375,-40.0390625,0.0
1699138368.651922,-28.3203125,-25.390625,-34.1796875,-38.0859375,0.0
1699138368.6558175,-13.671875,-23.92578125,-33.69140625,-31.25,0.0
1699138368.659713,-33.69140625,-37.109375,-41.50390625,-38.0859375,0.0
1699138368.6636086,-45.8984375,-37.59765625,-42.96875,-42.48046875,0.0
1699138368.667504,-30.76171875,-33.203125,-28.3203125,-31.73828125,0.0
1699138368.6713996,-25.87890625,-35.15625,-25.390625,-21.484375,0.0
1699138368.675295,-40.0390625,-36.62109375,-34.66796875,-22.4609375,0.0
1699138368.6791906,-50.78125,-45.8984375,-31.73828125,-24.90234375,0.0
1699138368.6831522,-41.9921875,-51.7578125,-20.5078125,-31.73828125,0.0
1699138368.6870477,-32.2265625,-44.43359375,-12.20703125,-31.73828125,0.0
1699138368.6909432,-28.80859375,-39.55078125,-24.90234375,-20.01953125,0.0
1699138368.6948388,-46.875,-40.52734375,-33.69140625,-30.2734375,0.0
1699138368.6987343,-32.2265625,-36.1328125,-16.11328125,-32.2265625,0.0
1699138368.7026298,-18.5546875,-37.109375,-18.5546875,-22.94921875,0.0
1699138368.7065253,-19.53125,-41.50390625,-18.5546875,-22.4609375,0.0
1699138368.7104208,-43.9453125,-37.59765625,-19.04296875,-29.78515625,0.0
1699138368.7143164,-41.015625,-36.1328125,-31.25,-25.87890625,0.0
1699138368.718212,-21.97265625,-26.3671875,-22.94921875,-21.484375,0.0
1699138368.7221074,-13.671875,-36.62109375,-9.27734375,-21.484375,0.0
1699138368.726003,-29.78515625,-49.31640625,-14.16015625,-28.80859375,0.0
1699138368.7301283,-36.1328125,-24.4140625,-35.15625,-29.78515625,0.0
1699138368.7340238,-20.01953125,-13.671875,-41.50390625,-27.83203125,0.0
1699138368.7379193,-5.37109375,-10.7421875,-35.15625,-20.01953125,0.0
1699138368.7418149,-11.71875,-10.7421875,-36.1328125,-17.08984375,0.0
1699138368.7457104,-27.34375,-18.06640625,-31.73828125,-33.203125,0.0
1699138368.7496061,-20.99609375,-22.4609375,-41.015625,-33.203125,0.0
1699138368.7535017,-8.30078125,-19.53125,-45.8984375,-23.4375,0.0
1699138368.7573972,-4.39453125,-30.2734375,-35.64453125,-28.3203125,0.0
1699138368.7612927,-37.109375,-35.15625,-31.73828125,-40.52734375,0.0
1699138368.7651882,-31.73828125,-31.25,-23.4375,-31.25,0.0
1699138368.769084,-21.484375,-32.71484375,-12.20703125,-22.4609375,0.0
1699138368.7729795,-22.4609375,-31.25,-27.83203125,-19.04296875,0.0
1699138368.7770202,-44.43359375,-34.66796875,-40.0390625,-26.85546875,0.0
1699138368.780916,-53.7109375,-24.4140625,-24.4140625,-30.2734375,0.0
1699138368.7848115,-41.015625,-23.4375,-17.578125,-25.390625,0.0
1699138368.788707,-24.90234375,-34.66796875,-19.04296875,-19.04296875,0.0
1699138368.7926028,-42.96875,-45.41015625,-28.3203125,-33.203125,0.0
1699138368.7964983,-58.59375,-44.43359375,-50.29296875,-36.1328125,0.0
1699138368.8003938,-43.9453125,-25.390625,-41.015625,-20.01953125,0.0
1699138368.8042893,-30.2734375,-30.76171875,-25.390625,-17.578125,0.0
1699138368.808185,-34.1796875,-56.640625,-23.4375,-26.85546875,0.0
1699138368.8120806,-57.12890625,-41.015625,-16.11328125,-30.2734375,0.0
1699138368.8159761,-51.26953125,-27.83203125,-22.4609375,-29.78515625,0.0
1699138368.819872,-29.78515625,-33.203125,-21.97265625,-27.83203125,0.0
1699138368.823902,-22.94921875,-44.921875,-11.71875,-16.11328125,0.0
1699138368.8277974,-44.921875,-40.52734375,-3.41796875,-21.484375,0.0
1699138368.831693,-34.66796875,-26.3671875,-11.23046875,-33.69140625,0.0
1699138368.8355887,-18.06640625,-29.296875,-20.01953125,-27.34375,0.0
1699138368.8394842,-15.625,-32.2265625,-31.25,-18.5546875,0.0
1699138368.84338,-41.9921875,-23.4375,-40.0390625,-30.2734375,0.0
1699138368.8472755,-41.9921875,-18.5546875,-27.83203125,-29.78515625,0.0
1699138368.851171,-17.08984375,-27.34375,-11.23046875,-15.13671875,0.0
1699138368.8550668,-10.7421875,-25.87890625,-9.27734375,-7.32421875,0.0
1699138368.8589623,-23.4375,-18.5546875,-13.671875,-20.99609375,0.0
1699138368.8628578,-27.34375,-15.625,-21.484375,-32.71484375,0.0
1699138368.8667536,-13.671875,-18.06640625,-26.3671875,-28.80859375,0.0
1699138368.870765,2.44140625,-17.08984375,-30.2734375,-26.85546875,0.0
1699138368.8746605,-10.25390625,-22.94921875,-27.34375,-33.203125,0.0
1699138368.8785563,-35.15625,-32.71484375,-23.92578125,-36.62109375,0.0
1699138368.8824518,-25.87890625,-28.3203125,-30.2734375,-29.78515625,0.0
1699138368.8863475,-17.578125,-25.87890625,-28.3203125,-23.4375,0.0
1699138368.890243,-13.18359375,-29.78515625,-20.5078125,-26.85546875,0.0
1699138368.8941388,-32.71484375,-35.15625,-15.625,-33.203125,0.0
1699138368.8980343,-29.78515625,-36.62109375,-29.296875,-28.80859375,0.0
1699138368.90193,-19.04296875,-40.52734375,-33.69140625,-26.85546875,0.0
1699138368.9058256,-18.06640625,-41.015625,-25.390625,-30.2734375,0.0
1699138368.9097214,-44.43359375,-33.203125,-16.11328125,-41.50390625,0.0
1699138368.913617,-53.7109375,-26.3671875,-14.6484375,-44.43359375,0.0
1699138368.9176104,-45.41015625,-28.80859375,-34.1796875,-44.43359375,0.0
1699138368.9215062,-33.203125,-25.87890625,-44.43359375,-44.921875,0.0
1699138368.9254017,-43.45703125,-38.57421875,-28.80859375,-43.45703125,0.0
1699138368.9292974,-63.4765625,-43.45703125,-19.04296875,-37.59765625,0.0
1699138368.933193,-50.78125,-26.3671875,-20.99609375,-35.64453125,0.0
1699138368.9370887,-41.015625,-32.71484375,-24.90234375,-42.48046875,0.0
1699138368.9409842,-46.875,-43.45703125,-22.94921875,-48.828125,0.0
1699138368.94488,-62.5,-47.8515625,-24.90234375,-46.38671875,0.0
1699138368.9487755,-44.921875,-39.0625,-30.2734375,-38.0859375,0.0
1699138368.9526713,-31.73828125,-32.71484375,-35.15625,-28.3203125,0.0
1699138368.9565668,-34.1796875,-35.64453125,-45.41015625,-27.83203125,0.0
1699138368.9604626,-46.875,-32.2265625,-51.7578125,-41.9921875,0.0
1699138368.964463,-41.9921875,-37.59765625,-47.8515625,-36.62109375,0.0
1699138368.9683588,-27.34375,-40.0390625,-34.1796875,-26.85546875,0.0
1699138368.9722543,-18.5546875,-31.25,-24.90234375,-33.203125,0.0
1699138368.97615,-35.15625,-25.390625,-34.1796875,-44.43359375,0.0
1699138368.9800456,-30.76171875,-27.34375,-46.38671875,-42.96875,0.0
1699138368.9839413,-15.625,-37.109375,-35.15625,-38.57421875,0.0
1699138368.987837,-9.27734375,-36.62109375,-22.4609375,-41.50390625,0.0
1699138368.9917326,-17.08984375,-32.71484375,-31.25,-44.921875,0.0
1699138368.9956284,-33.203125,-32.71484375,-42.48046875,-42.96875,0.0
1699138368.9995239,-21.97265625,-31.73828125,-36.1328125,-34.1796875,0.0
1699138369.0034196,-15.13671875,-29.296875,-32.2265625,-23.92578125,0.0
1699138369.0073152,-18.5546875,-26.85546875,-34.66796875,-21.97265625,0.0
1699138369.0112972,-31.73828125,-24.4140625,-30.2734375,-19.04296875,0.0
1699138369.015193,-20.5078125,-18.5546875,-20.01953125,-12.6953125,0.0
1699138369.0190887,-8.30078125,-21.97265625,-27.83203125,-13.18359375,0.0
1699138369.0229843,-8.7890625,-25.390625,-30.76171875,-14.6484375,0.0
1699138369.02688,-32.2265625,-31.73828125,-30.2734375,-22.4609375,0.0
1699138369.0307758,-36.62109375,-34.66796875,-41.50390625,-19.04296875,0.0
1699138369.0346713,-29.78515625,-30.2734375,-29.78515625,-7.8125,0.0
1699138369.038567,-19.04296875,-31.25,-12.6953125,0.48828125,0.0
1699138369.0424628,-35.64453125,-27.34375,-21.484375,-7.32421875,0.0
1699138369.0463583,-45.8984375,-31.25,-27.83203125,-14.6484375,0.0
1699138369.050254,-35.15625,-35.64453125,-13.671875,-10.7421875,0.0
1699138369.0541496,-34.1796875,-33.203125,-5.859375,-11.71875,0.0
1699138369.0581157,-49.8046875,-36.62109375,-3.90625,-19.53125,0.0
1699138369.0620115,-63.4765625,-46.38671875,-6.34765625,-20.01953125,0.0
1699138369.065907,-41.9921875,-44.43359375,-20.99609375,-15.625,0.0
1699138369.0698028,-19.53125,-42.96875,-40.0390625,-11.23046875,0.0
1699138369.0736985,-21.97265625,-46.875,-31.73828125,-15.625,0.0
1699138369.077594,-50.29296875,-47.36328125,-21.97265625,-22.4609375,0.0
1699138369.0814898,-41.015625,-46.38671875,-20.5078125,-15.13671875,0.0
1699138369.0853856,-24.90234375,-41.015625,-21.484375,-4.39453125,0.0
1699138369.089281,-15.625,-38.0859375,-23.92578125,-4.39453125,0.0
1699138369.0931768,-33.203125,-44.921875,-19.04296875,-17.578125,0.0
1699138369.0970726,-34.1796875,-49.31640625,-16.11328125,-17.578125,0.0
1699138369.1009681,-19.04296875,-39.0625,-19.53125,-12.20703125,0.0
1699138369.1050298,-16.11328125,-34.1796875,-29.78515625,-10.25390625,0.0
1699138369.1089253,-36.1328125,-34.66796875,-30.2734375,-18.06640625,0.0
1699138369.112821,-41.9921875,-29.78515625,-38.0859375,-19.53125,0.0
1699138369.1167169,-18.06640625,-25.87890625,-40.0390625,-11.23046875,0.0
1699138369.1206126,-4.39453125,-32.71484375,-27.83203125,-16.11328125,0.0
1699138369.1245084,-19.04296875,-29.296875,-27.34375,-23.92578125,0.0
1699138369.128404,-45.41015625,-15.13671875,-28.3203125,-31.25,0.0
1699138369.1322997,-38.57421875,-20.01953125,-25.87890625,-29.296875,0.0
1699138369.1361954,-19.53125,-17.578125,-28.80859375,-19.04296875,0.0
1699138369.1400912,-10.25390625,-13.671875,-31.73828125,-17.578125,0.0
1699138369.143987,-30.76171875,-20.01953125,-28.3203125,-31.25,0.0
1699138369.1478825,-31.73828125,-19.04296875,-16.6015625,-31.25,0.0
1699138369.151905,-21.97265625,-17.08984375,-18.06640625,-26.85546875,0.0
1699138369.1558008,-20.99609375,-22.4609375,-30.2734375,-26.85546875,0.0
1699138369.1596966,-39.0625,-25.390625,-28.80859375,-32.71484375,0.0
1699138369.1635923,-39.0625,-27.83203125,-34.1796875,-36.1328125,0.0
1699138369.167488,-30.2734375,-38.57421875,-37.109375,-36.1328125,0.0
1699138369.1713836,-18.5546875,-37.59765625,-30.2734375,-29.78515625,0.0
1699138369.1752794,-35.15625,-29.78515625,-25.390625,-31.73828125,0.0
1699138369.1791751,-55.6640625,-25.390625,-23.92578125,-39.0625,0.0
1699138369.183071,-45.8984375,-25.390625,-21.484375,-38.57421875,0.0
1699138369.1869667,-37.109375,-38.0859375,-18.06640625,-37.109375,0.0
1699138369.1908624,-41.50390625,-43.9453125,-22.94921875,-38.0859375,0.0
1699138369.1947582,-52.734375,-29.296875,-26.3671875,-41.50390625,0.0
1699138369.1987865,-39.0625,-25.390625,-33.69140625,-38.0859375,0.0
1699138369.2026823,-26.85546875,-33.203125,-35.15625,-34.1796875,0.0
1699138369.206578,-23.92578125,-37.109375,-33.203125,-31.25,0.0
1699138369.2104738,-47.36328125,-36.1328125,-41.015625,-40.0390625,0.0
1699138369.2143695,-37.109375,-29.78515625,-35.15625,-37.109375,0.0
1699138369.2182653,-21.97265625,-26.3671875,-28.80859375,-28.80859375,0.0
1699138369.222161,-11.23046875,-19.04296875,-27.34375,-26.3671875,0.0
1699138369.2260568,-28.80859375,-17.08984375,-23.92578125,-40.0390625,0.0
1699138369.2299526,-36.1328125,-25.87890625,-24.4140625,-38.57421875,0.0
1699138369.2338483,-17.08984375,-22.4609375,-18.06640625,-22.4609375,0.0
1699138369.237744,-6.34765625,-14.6484375,-25.390625,-24.90234375,0.0
1699138369.2416399,-16.6015625,-22.4609375,-39.55078125,-27.83203125,0.0
1699138369.2456765,-28.80859375,-25.87890625,-26.85546875,-28.3203125,0.0
1699138369.2495723,-22.4609375,-20.99609375,-16.11328125,-31.25,0.0
1699138369.253468,-7.8125,-29.296875,-21.484375,-27.34375,0.0
1699138369.2573638,-9.27734375,-35.15625,-21.484375,-32.2265625,0.0
1699138369.2612596,-38.0859375,-32.71484375,-19.53125,-36.62109375,0.0
1699138369.2651553,-34.1796875,-34.66796875,-31.25,-32.71484375,0.0
1699138369.269051,-25.87890625,-30.76171875,-42.48046875,-29.296875,0.0
1699138369.2729468,-19.53125,-26.3671875,-34.66796875,-20.01953125,0.0
1699138369.2768426,-41.015625,-22.4609375,-24.4140625,-31.25,0.0
1699138369.2807384,-39.55078125,-18.5546875,-15.625,-37.109375,0.0
1699138369.284634,-19.53125,-25.87890625,-23.4375,-32.71484375,0.0
1699138369.2885299,-13.18359375,-33.69140625,-31.73828125,-32.71484375,0.0
1699138369.2925282,-43.45703125,-38.0859375,-34.1796875,-43.9453125,0.0
1699138369.296424,-49.8046875,-43.9453125,-32.2265625,-44.43359375,0.0
1699138369.30032,-37.59765625,-53.22265625,-26.85546875,-34.66796875,0.0
1699138369.3042157,-34.1796875,-53.7109375,-25.87890625,-36.1328125,0.0
1699138369.3081114,-41.9921875,-35.64453125,-21.97265625,-38.57421875,0.0
1699138369.3120072,-59.5703125,-32.71484375,-18.5546875,-36.62109375,0.0
1699138369.315903,-51.7578125,-38.57421875,-28.3203125,-29.296875,0.0
1699138369.3197987,-35.64453125,-35.15625,-36.62109375,-19.53125,0.0
1699138369.3236945,-32.71484375,-31.73828125,-25.390625,-15.13671875,0.0
1699138369.3275902,-49.8046875,-27.83203125,-39.55078125,-22.4609375,0.0
1699138369.3314862,-42.96875,-33.203125,-47.36328125,-25.87890625,0.0
1699138369.335382,-29.78515625,-29.296875,-22.4609375,-20.01953125,0.0
1699138369.3393672,-23.92578125,-31.73828125,-21.484375,-17.578125,0.0
1699138369.343263,-47.8515625,-43.45703125,-22.94921875,-32.71484375,0.0
1699138369.3471587,-47.36328125,-46.875,-22.4609375,-43.9453125,0.0
1699138369.3510547,-27.34375,-50.29296875,-23.92578125,-40.0390625,0.0
1699138369.3549504,-15.13671875,-40.0390625,-33.203125,-37.59765625,0.0
1699138369.3588462,-39.0625,-27.83203125,-39.0625,-50.78125,0.0
1699138369.362742,-51.26953125,-20.01953125,-37.59765625,-45.8984375,0.0
1699138369.3666377,-35.64453125,-16.11328125,-30.2734375,-31.25,0.0
1699138369.3705337,-12.20703125,-10.7421875,-18.06640625,-27.83203125,0.0
1699138369.3744295,-15.13671875,-18.06640625,-17.08984375,-36.62109375,0.0
1699138369.3783252,-38.57421875,-35.15625,-23.92578125,-43.9453125,0.0
1699138369.382221,-30.76171875,-44.921875,-26.3671875,-37.59765625,0.0
1699138369.3862095,-18.06640625,-31.25,-20.99609375,-26.3671875,0.0
1699138369.3901052,-20.99609375,-24.90234375,-23.92578125,-21.484375,0.0
1699138369.394001,-42.48046875,-29.296875,-25.390625,-30.2734375,0.0
1699138369.3978968,-31.25,-15.13671875,-22.94921875,-24.90234375,0.0
1699138369.4017928,-16.11328125,-18.06640625,-42.48046875,-18.5546875,0.0
1699138369.4056885,-17.08984375,-35.15625,-50.78125,-21.97265625,0.0
1699138369.4095843,-39.0625,-37.59765625,-28.80859375,-26.85546875,0.0
1699138369.41348,-36.1328125,-26.85546875,-23.4375,-25.87890625,0.0
1699138369.417376,-22.4609375,-20.5078125,-30.76171875,-25.390625,0.0
1699138369.4212718,-14.16015625,-20.99609375,-20.5078125,-20.99609375,0.0
1699138369.4251676,-29.78515625,-27.83203125,-15.13671875,-21.484375,0.0
1699138369.4290633,-42.96875,-27.83203125,-23.92578125,-21.97265625,0.0
1699138369.4330366,-36.1328125,-26.3671875,-27.83203125,-20.01953125,0.0
1699138369.4369323,-21.484375,-34.1796875,-23.4375,-17.08984375,0.0
1699138369.4408283,-25.87890625,-42.96875,-32.2265625,-23.4375,0.0
1699138369.444724,-41.50390625,-43.45703125,-40.0390625,-31.25,0.0
1699138369.4486198,-23.4375,-37.59765625,-33.69140625,-22.94921875,0.0
1699138369.4525158,-15.625,-40.0390625,-29.296875,-15.13671875,0.0
1699138369.4564116,-21.484375,-47.8515625,-34.66796875,-17.578125,0.0
1699138369.4603074,-41.50390625,-45.41015625,-47.36328125,-28.3203125,0.0
1699138369.4642031,-36.1328125,-36.1328125,-37.59765625,-25.390625,0.0
1699138369.468099,-25.390625,-36.1328125,-15.625,-26.3671875,0.0
1699138369.4719949,-22.94921875,-35.15625,-15.13671875,-25.390625,0.0
1699138369.4758906,-42.48046875,-27.34375,-23.92578125,-30.76171875,0.0
1699138369.4799356,-46.38671875,-27.83203125,-29.78515625,-38.0859375,0.0
1699138369.4838316,-26.3671875,-27.83203125,-37.59765625,-27.34375,0.0
1699138369.4877274,-7.8125,-32.71484375,-43.45703125,-20.01953125,0.0
1699138369.4916232,-21.97265625,-32.71484375,-31.73828125,-27.83203125,0.0
1699138369.4955192,-33.203125,-25.390625,-35.64453125,-28.3203125,0.0
1699138369.499415,-21.97265625,-29.78515625,-41.015625,-22.94921875,0.0
1699138369.503311,-10.7421875,-38.57421875,-19.04296875,-17.578125,0.0
1699138369.5072067,-17.578125,-35.15625,-12.20703125,-20.99609375,0.0
1699138369.5111024,-37.59765625,-24.90234375,-14.6484375,-27.34375,0.0
1699138369.5149984,-28.80859375,-23.92578125,-11.23046875,-19.04296875,0.0
1699138369.5188942,-14.16015625,-24.90234375,-19.04296875,-19.53125,0.0
1699138369.5227902,-9.27734375,-22.94921875,-31.73828125,-27.83203125,0.0
1699138369.526818,-31.73828125,-19.53125,-33.203125,-37.109375,0.0
1699138369.5307138,-25.87890625,-23.4375,-42.96875,-33.69140625,0.0
1699138369.5346098,-14.6484375,-42.48046875,-47.8515625,-29.78515625,0.0
1699138369.5385056,-16.11328125,-38.0859375,-36.62109375,-33.203125,0.0
1699138369.5424016,-37.59765625,-22.94921875,-23.4375,-41.015625,0.0
1699138369.5462973,-40.0390625,-28.3203125,-7.8125,-35.15625,0.0
1699138369.550193,-27.34375,-40.52734375,-15.13671875,-34.66796875,0.0
1699138369.554089,-14.16015625,-35.15625,-25.390625,-30.2734375,0.0
1699138369.5579848,-30.2734375,-32.71484375,-35.64453125,-26.85546875,0.0
1699138369.5618808,-39.55078125,-42.48046875,-36.1328125,-28.80859375,0.0
1699138369.5657766,-21.484375,-35.64453125,-22.94921875,-28.3203125,0.0
1699138369.5696726,-20.99609375,-27.34375,-23.92578125,-23.4375,0.0
1699138369.5736842,-31.73828125,-32.2265625,-26.3671875,-21.484375,0.0
1699138369.5775802,-43.9453125,-30.76171875,-31.25,-31.25,0.0
1699138369.581476,-27.34375,-20.01953125,-45.41015625,-30.76171875,0.0
1699138369.585372,-16.6015625,-14.6484375,-41.015625,-31.73828125,0.0
1699138369.5892677,-15.625,-25.390625,-29.296875,-33.203125,0.0
1699138369.5931637,-33.203125,-34.66796875,-22.4609375,-37.109375,0.0
1699138369.5970597,-33.69140625,-32.71484375,-27.83203125,-36.1328125,0.0
1699138369.6009555,-20.5078125,-33.203125,-28.80859375,-35.15625,0.0
1699138369.6048515,-8.30078125,-40.0390625,-20.5078125,-28.80859375,0.0
1699138369.6087472,-28.3203125,-35.64453125,-22.94921875,-37.59765625,0.0
1699138369.6126432,-40.0390625,-27.83203125,-30.76171875,-40.0390625,0.0
1699138369.616539,-36.62109375,-32.2265625,-29.78515625,-32.2265625,0.0
1699138369.6205573,-27.34375,-38.0859375,-29.296875,-33.69140625,0.0
1699138369.6244533,-36.1328125,-40.0390625,-34.1796875,-37.59765625,0.0
1699138369.6283493,-44.43359375,-31.73828125,-40.52734375,-35.15625,0.0
1699138369.632245,-33.203125,-19.53125,-46.38671875,-34.66796875,0.0
1699138369.636141,-22.94921875,-27.34375,-29.78515625,-33.69140625,0.0
1699138369.640037,-20.99609375,-32.71484375,-16.11328125,-29.296875,0.0
1699138369.6439328,-42.48046875,-34.1796875,-26.3671875,-37.59765625,0.0
1699138369.6478288,-36.62109375,-41.015625,-27.83203125,-31.73828125,0.0
1699138369.6517246,-22.4609375,-34.1796875,-20.5078125,-23.4375,0.0
1699138369.6556206,-24.90234375,-36.1328125,-21.97265625,-26.3671875,0.0
1699138369.6595166,-44.921875,-41.9921875,-33.203125,-32.2265625,0.0
1699138369.6634123,-40.52734375,-40.52734375,-36.1328125,-32.2265625,0.0
1699138369.667414,-26.3671875,-34.66796875,-21.484375,-28.80859375,0.0
1699138369.67131,-16.11328125,-31.25,-11.23046875,-20.5078125,0.0
1699138369.6752057,-35.15625,-31.25,-4.39453125,-24.4140625,0.0
1699138369.6791017,-38.57421875,-38.0859375,-11.23046875,-26.85546875,0.0
1699138369.6829977,-16.6015625,-46.38671875,-30.2734375,-21.97265625,0.0
1699138369.6868935,-15.625,-47.36328125,-38.57421875,-25.87890625,0.0
1699138369.6907895,-26.85546875,-40.52734375,-33.203125,-36.1328125,0.0
1699138369.6946855,-43.45703125,-34.1796875,-27.83203125,-36.62109375,0.0
1699138369.6985812,-35.15625,-38.57421875,-23.92578125,-26.3671875,0.0
1699138369.7024772,-20.5078125,-38.57421875,-37.109375,-31.25,0.0
1699138369.7063732,-20.01953125,-32.2265625,-42.96875,-44.43359375,0.0
1699138369.7102692,-30.2734375,-21.97265625,-23.4375,-41.9921875,0.0
1699138369.714256,-21.97265625,-23.4375,-13.18359375,-36.62109375,0.0
1699138369.718152,-13.671875,-36.1328125,-15.625,-41.9921875,0.0
1699138369.722048,-15.625,-39.55078125,-23.4375,-43.9453125,0.0
1699138369.7259438,-41.9921875,-28.80859375,-22.94921875,-43.45703125,0.0
1699138369.7298398,-31.73828125,-28.3203125,-18.5546875,-35.15625,0.0
1699138369.7337358,-12.6953125,-31.73828125,-24.90234375,-34.1796875,0.0
1699138369.7376318,-13.18359375,-35.15625,-27.34375,-25.87890625,0.0
1699138369.7415276,-41.015625,-36.62109375,-18.5546875,-29.78515625,0.0
1699138369.7454236,-48.828125,-33.69140625,-22.4609375,-37.59765625,0.0
1699138369.7493196,-21.484375,-25.390625,-29.296875,-27.83203125,0.0
1699138369.7532156,-2.9296875,-14.16015625,-21.97265625,-25.390625,0.0
1699138369.7571113,-14.6484375,-20.5078125,-12.6953125,-36.1328125,0.0
1699138369.7610834,-37.59765625,-27.34375,-13.671875,-41.9921875,0.0
1699138369.7649791,-27.34375,-28.3203125,-23.92578125,-31.73828125,0.0
1699138369.7688751,-20.01953125,-33.69140625,-25.87890625,-31.25,0.0
1699138369.7727711,-23.4375,-27.34375,-21.484375,-37.59765625,0.0
1699138369.776667,-43.9453125,-14.16015625,-22.94921875,-38.0859375,0.0
1699138369.780563,-42.48046875,-24.4140625,-22.94921875,-27.83203125,0.0
1699138369.7844589,-28.80859375,-34.1796875,-28.3203125,-20.99609375,0.0
1699138369.7883549,-21.484375,-32.71484375,-32.2265625,-20.5078125,0.0
1699138369.7922509,-40.52734375,-30.76171875,-31.25,-28.80859375,0.0
1699138369.7961469,-47.36328125,-33.203125,-54.19921875,-33.203125,0.0
1699138369.8000429,-39.0625,-44.921875,-38.57421875,-29.78515625,0.0
1699138369.8039386,-32.2265625,-37.109375,-9.27734375,-27.83203125,0.0
1699138369.807915,-49.8046875,-24.90234375,-17.08984375,-34.1796875,0.0
1699138369.8118107,-52.24609375,-28.3203125,-17.08984375,-35.15625,0.0
1699138369.8157067,-31.73828125,-27.34375,-11.23046875,-29.78515625,0.0
1699138369.8196027,-22.94921875,-19.04296875,-18.5546875,-28.80859375,0.0
1699138369.8234987,-33.203125,-22.4609375,-28.80859375,-33.69140625,0.0
1699138369.8273947,-53.7109375,-41.015625,-29.78515625,-43.45703125,0.0
1699138369.8312907,-43.45703125,-39.0625,-22.94921875,-29.78515625,0.0
1699138369.8351865,-23.4375,-28.80859375,-31.25,-20.5078125,0.0
1699138369.8390825,-15.13671875,-32.2265625,-51.26953125,-28.80859375,0.0
1699138369.8429785,-42.48046875,-29.296875,-52.24609375,-41.015625,0.0
1699138369.8468745,-41.50390625,-34.66796875,-34.66796875,-42.96875,0.0
1699138369.8507705,-25.87890625,-42.48046875,-27.83203125,-37.109375,0.0
1699138369.854817,-25.390625,-30.76171875,-38.0859375,-37.59765625,0.0
1699138369.858713,-49.31640625,-25.390625,-33.69140625,-45.8984375,0.0
1699138369.862609,-49.8046875,-29.296875,-17.08984375,-41.50390625,0.0
1699138369.866505,-33.69140625,-26.85546875,-22.4609375,-33.203125,0.0
1699138369.870401,-17.578125,-25.87890625,-39.55078125,-29.78515625,0.0
1699138369.8742967,-37.109375,-25.87890625,-41.015625,-46.875,0.0
1699138369.8781927,-59.5703125,-28.3203125,-25.87890625,-56.15234375,0.0
1699138369.8820887,-42.48046875,-37.59765625,-21.484375,-42.48046875,0.0
1699138369.8859847,-30.76171875,-39.55078125,-23.4375,-36.62109375,0.0
1699138369.8898807,-32.71484375,-34.66796875,-20.5078125,-42.48046875,0.0
1699138369.8937767,-47.36328125,-29.296875,-22.4609375,-43.9453125,0.0
1699138369.8976727,-43.9453125,-26.3671875,-29.296875,-35.64453125,0.0
1699138369.9017043,-32.2265625,-23.92578125,-32.71484375,-28.3203125,0.0
1699138369.9056003,-32.2265625,-23.92578125,-33.203125,-29.296875,0.0
1699138369.9094963,-55.17578125,-37.59765625,-27.83203125,-38.0859375,0.0
1699138369.9133923,-44.43359375,-37.59765625,-30.2734375,-32.71484375,0.0
1699138369.9172885,-24.90234375,-27.83203125,-25.87890625,-22.4609375,0.0
1699138369.9211845,-17.08984375,-30.2734375,-13.671875,-15.625,0.0
1699138369.9250805,-36.62109375,-28.80859375,-18.5546875,-22.94921875,0.0
1699138369.9289765,-37.109375,-31.73828125,-16.6015625,-23.4375,0.0
1699138369.9328725,-20.01953125,-33.203125,-20.99609375,-14.16015625,0.0
1699138369.9367685,-17.08984375,-23.92578125,-30.2734375,-9.765625,0.0
1699138369.9406645,-29.296875,-21.97265625,-27.83203125,-18.06640625,0.0
1699138369.9445605,-41.9921875,-33.203125,-22.4609375,-27.83203125,0.0
1699138369.948577,-33.203125,-37.59765625,-26.85546875,-28.80859375,0.0
1699138369.9524732,-27.34375,-38.57421875,-38.57421875,-25.390625,0.0
1699138369.9563692,-28.3203125,-37.59765625,-20.99609375,-26.85546875,0.0
1699138369.9602652,-37.59765625,-32.2265625,-16.11328125,-29.78515625,0.0
1699138369.9641612,-24.90234375,-31.25,-28.3203125,-26.3671875,0.0
1699138369.9680572,-11.71875,-35.15625,-25.390625,-27.83203125,0.0
1699138369.9719532,-12.6953125,-40.0390625,-17.578125,-28.80859375,0.0
1699138369.9758492,-38.57421875,-46.38671875,-23.4375,-40.52734375,0.0
1699138369.9797451,-39.0625,-39.55078125,-41.015625,-38.0859375,0.0
1699138369.9836411,-21.97265625,-20.99609375,-33.203125,-28.3203125,0.0
1699138369.9875374,-17.08984375,-28.3203125,-26.3671875,-31.73828125,0.0
1699138369.9914334,-38.57421875,-31.25,-29.296875,-41.50390625,0.0
1699138369.9954348,-48.828125,-22.4609375,-29.296875,-36.62109375,0.0
1699138369.9993308,-35.15625,-28.80859375,-32.2265625,-29.296875,0.0
1699138370.0032268,-21.97265625,-32.2265625,-30.2734375,-27.83203125,0.0
1699138370.0071228,-30.2734375,-31.25,-20.01953125,-30.76171875,0.0
1699138370.0110188,-43.45703125,-35.64453125,-19.53125,-35.64453125,0.0
1699138370.014915,-33.203125,-39.0625,-31.73828125,-34.1796875,0.0
1699138370.018811,-20.5078125,-29.296875,-23.4375,-27.83203125,0.0
1699138370.022707,-15.13671875,-29.78515625,-24.90234375,-21.97265625,0.0
1699138370.026603,-29.296875,-24.4140625,-35.15625,-26.3671875,0.0
1699138370.030499,-18.5546875,-21.97265625,-29.296875,-22.94921875,0.0
1699138370.034395,-13.18359375,-35.64453125,-25.390625,-23.4375,0.0
1699138370.0382912,-8.7890625,-32.71484375,-17.08984375,-31.25,0.0
1699138370.0422976,-24.4140625,-21.97265625,-9.765625,-33.203125,0.0
1699138370.0461938,-26.3671875,-21.484375,-11.71875,-27.34375,0.0
1699138370.0500898,-18.5546875,-27.34375,-11.71875,-25.87890625,0.0
1699138370.0539858,-16.11328125,-37.109375,-19.53125,-25.87890625,0.0
1699138370.0578818,-30.76171875,-38.57421875,-36.62109375,-35.15625,0.0
1699138370.061778,-38.0859375,-30.76171875,-39.55078125,-38.0859375,0.0
1699138370.065674,-29.296875,-36.1328125,-23.92578125,-30.76171875,0.0
1699138370.06957,-23.92578125,-42.96875,-17.08984375,-28.80859375,0.0
1699138370.073466,-25.390625,-44.921875,-22.94921875,-36.1328125,0.0
1699138370.0773623,-37.109375,-34.66796875,-30.2734375,-34.1796875,0.0
1699138370.0812583,-30.76171875,-25.390625,-35.64453125,-29.78515625,0.0
1699138370.0851543,-16.11328125,-29.296875,-33.203125,-26.85546875,0.0
1699138370.0891466,-21.97265625,-31.73828125,-29.78515625,-30.76171875,0.0
1699138370.0930426,-47.8515625,-37.59765625,-31.73828125,-39.55078125,0.0
1699138370.0969388,-30.76171875,-34.66796875,-39.55078125,-29.296875,0.0
1699138370.1008348,-15.13671875,-32.71484375,-44.43359375,-24.4140625,0.0
1699138370.1047308,-20.5078125,-33.203125,-25.87890625,-28.3203125,0.0
1699138370.108627,-50.29296875,-41.9921875,-13.18359375,-41.50390625,0.0
1699138370.112523,-54.6875,-41.015625,-21.484375,-42.48046875,0.0
1699138370.116419,-43.45703125,-23.92578125,-28.3203125,-42.96875,0.0
1699138370.120315,-40.52734375,-24.90234375,-27.83203125,-45.8984375,0.0
1699138370.1242113,-60.546875,-37.109375,-30.2734375,-47.8515625,0.0
1699138370.1281073,-67.3828125,-30.76171875,-30.76171875,-48.828125,0.0
1699138370.1320033,-47.36328125,-34.1796875,-29.78515625,-40.52734375,0.0
1699138370.1359797,-38.0859375,-45.8984375,-37.109375,-34.1796875,0.0
1699138370.139876,-42.96875,-33.69140625,-28.80859375,-37.109375,0.0
1699138370.143772,-56.640625,-32.2265625,-24.4140625,-41.50390625,0.0
1699138370.147668,-47.8515625,-34.1796875,-25.390625,-36.62109375,0.0
1699138370.1515641,-27.83203125,-25.87890625,-26.3671875,-34.66796875,0.0
1699138370.1554601,-30.2734375,-27.83203125,-34.66796875,-36.1328125,0.0
1699138370.159356,-48.828125,-33.203125,-35.15625,-32.2265625,0.0
1699138370.1632524,-27.83203125,-25.87890625,-22.4609375,-24.90234375,0.0
1699138370.1671484,-14.16015625,-22.94921875,-18.06640625,-26.85546875,0.0
1699138370.1710443,-10.25390625,-33.203125,-25.87890625,-23.92578125,0.0
1699138370.1749406,-33.69140625,-30.2734375,-36.1328125,-31.25,0.0
1699138370.1788366,-41.50390625,-14.16015625,-37.59765625,-34.1796875,0.0
1699138370.1828177,-21.484375,-7.8125,-33.69140625,-26.3671875,0.0
1699138370.186714,-16.6015625,-20.01953125,-28.3203125,-29.296875,0.0
1699138370.19061,-41.50390625,-30.2734375,-19.53125,-43.9453125,0.0
1699138370.194506,-48.33984375,-28.80859375,-27.34375,-53.22265625,0.0
1699138370.1984022,-32.2265625,-29.78515625,-30.2734375,-47.36328125,0.0
1699138370.2022982,-12.20703125,-37.109375,-26.85546875,-32.71484375,0.0
1699138370.2061944,-8.7890625,-35.64453125,-22.4609375,-25.390625,0.0
1699138370.2100904,-29.296875,-23.92578125,-11.71875,-23.4375,0.0
1699138370.2139864,-14.6484375,-25.390625,-18.5546875,-15.625,0.0
1699138370.2178826,-2.9296875,-37.59765625,-31.73828125,-11.23046875,0.0
1699138370.2217786,-8.7890625,-33.203125,-38.0859375,-20.01953125,0.0
1699138370.2256749,-33.69140625,-22.4609375,-33.203125,-33.69140625,0.0
1699138370.2297056,-35.15625,-30.2734375,-40.0390625,-31.73828125,0.0
1699138370.2336018,-24.4140625,-44.43359375,-41.9921875,-27.34375,0.0
1699138370.2374978,-14.16015625,-44.921875,-30.76171875,-20.5078125,0.0
1699138370.241394,-41.50390625,-35.15625,-31.25,-31.73828125,0.0
1699138370.24529,-52.734375,-28.80859375,-28.80859375,-29.78515625,0.0
1699138370.2491863,-39.0625,-25.390625,-24.90234375,-20.5078125,0.0
1699138370.2530823,-26.3671875,-22.94921875,-25.87890625,-18.5546875,0.0
1699138370.2569785,-33.203125,-23.92578125,-47.36328125,-25.390625,0.0
1699138370.2608745,-51.26953125,-28.3203125,-40.0390625,-36.62109375,0.0
1699138370.2647707,-40.52734375,-37.109375,-26.3671875,-26.85546875,0.0
1699138370.2686667,-29.78515625,-38.57421875,-37.59765625,-23.4375,0.0
1699138370.272563,-30.2734375,-30.76171875,-31.25,-25.87890625,0.0
1699138370.276599,-47.8515625,-21.97265625,-20.5078125,-33.203125,0.0
1699138370.280495,-44.43359375,-45.41015625,-25.390625,-33.69140625,0.0
1699138370.2843912,-34.1796875,-61.03515625,-32.71484375,-33.69140625,0.0
1699138370.2882872,-27.34375,-30.2734375,-37.59765625,-40.0390625,0.0
1699138370.2921834,-42.96875,-21.484375,-37.59765625,-47.8515625,0.0
1699138370.2960796,-40.0390625,-27.34375,-43.9453125,-44.921875,0.0
1699138370.2999756,-32.71484375,-25.390625,-43.45703125,-41.9921875,0.0
1699138370.3038719,-25.390625,-25.87890625,-39.0625,-41.9921875,0.0
1699138370.3077679,-37.59765625,-37.59765625,-46.875,-44.43359375,0.0
1699138370.311664,-43.45703125,-35.64453125,-50.78125,-41.015625,0.0
1699138370.3155603,-21.97265625,-26.3671875,-36.1328125,-36.1328125,0.0
1699138370.3194563,-4.39453125,-33.203125,-25.87890625,-26.85546875,0.0
1699138370.323477,-18.06640625,-35.15625,-23.92578125,-31.73828125,0.0
1699138370.3273733,-34.1796875,-29.78515625,-17.08984375,-41.015625,0.0
1699138370.3312695,-25.87890625,-29.296875,-19.04296875,-32.2265625,0.0
1699138370.3351655,-10.7421875,-26.85546875,-29.78515625,-25.390625,0.0
1699138370.3390617,-13.18359375,-32.2265625,-39.0625,-24.4140625,0.0
1699138370.342958,-38.57421875,-25.390625,-33.69140625,-32.2265625,0.0
1699138370.346854,-30.76171875,-23.92578125,-20.5078125,-29.296875,0.0
1699138370.3507502,-32.2265625,-37.59765625,-14.6484375,-26.3671875,0.0
1699138370.3546464,-40.0390625,-46.875,-22.94921875,-24.4140625,0.0
1699138370.3585424,-56.640625,-47.8515625,-29.78515625,-28.80859375,0.0
1699138370.3624387,-48.828125,-44.43359375,-24.90234375,-27.34375,0.0
1699138370.366335,-40.0390625,-37.59765625,-29.78515625,-22.94921875,0.0
1699138370.3703406,-36.62109375,-31.25,-32.71484375,-22.94921875,0.0
1699138370.3742368,-49.8046875,-37.59765625,-24.90234375,-24.90234375,0.0
1699138370.3781328,-55.6640625,-40.52734375,-24.90234375,-27.83203125,0.0
1699138370.382029,-44.921875,-30.2734375,-17.08984375,-23.4375,0.0
1699138370.3859253,-39.55078125,-24.4140625,-11.23046875,-21.97265625,0.0
1699138370.3898213,-39.0625,-30.76171875,-14.16015625,-29.296875,0.0
1699138370.3937175,-44.921875,-30.2734375,-27.34375,-25.390625,0.0
1699138370.3976138,-33.69140625,-35.15625,-27.34375,-20.5078125,0.0
1699138370.40151,-22.4609375,-42.48046875,-29.296875,-22.94921875,0.0
1699138370.405406,-23.92578125,-40.0390625,-39.55078125,-20.99609375,0.0
1699138370.4093022,-40.0390625,-35.15625,-26.3671875,-25.390625,0.0
1699138370.4131985,-25.390625,-20.01953125,-21.484375,-26.3671875,0.0
1699138370.4172094,-12.6953125,-11.71875,-24.4140625,-27.83203125,0.0
1699138370.4211054,-9.27734375,-16.11328125,-23.92578125,-25.390625,0.0
1699138370.4250016,-29.78515625,-20.99609375,-24.4140625,-28.3203125,0.0
1699138370.4288979,-24.90234375,-25.390625,-32.2265625,-30.2734375,0.0
1699138370.432794,-12.20703125,-30.2734375,-39.55078125,-28.80859375,0.0
1699138370.4366903,-3.41796875,-28.80859375,-32.71484375,-26.85546875,0.0
1699138370.4405863,-10.25390625,-30.76171875,-39.0625,-25.87890625,0.0
1699138370.4444826,-21.97265625,-33.69140625,-44.921875,-22.4609375,0.0
1699138370.4483788,-20.99609375,-32.2265625,-27.83203125,-28.80859375,0.0
1699138370.452275,-16.6015625,-30.76171875,-19.53125,-35.64453125,0.0
1699138370.4561713,-21.97265625,-26.85546875,-20.99609375,-31.73828125,0.0
1699138370.4600673,-42.96875,-22.94921875,-27.83203125,-38.57421875,0.0
1699138370.4640634,-27.34375,-21.484375,-31.73828125,-30.76171875,0.0
1699138370.4679596,-11.23046875,-29.78515625,-21.97265625,-20.5078125,0.0
1699138370.4718559,-17.578125,-37.109375,-19.53125,-23.4375,0.0
1699138370.475752,-42.48046875,-33.69140625,-17.578125,-23.92578125,0.0
1699138370.4796484,-50.29296875,-28.80859375,-20.01953125,-25.390625,0.0
1699138370.4835446,-34.66796875,-34.1796875,-31.73828125,-23.92578125,0.0
1699138370.4874408,-16.6015625,-41.015625,-27.34375,-17.08984375,0.0
1699138370.491337,-41.50390625,-34.1796875,-18.06640625,-20.5078125,0.0
1699138370.495233,-45.41015625,-20.5078125,-11.23046875,-19.04296875,0.0
1699138370.4991293,-35.64453125,-25.87890625,-12.20703125,-9.765625,0.0
1699138370.5030255,-27.83203125,-31.25,-9.765625,-5.37109375,0.0
1699138370.5069218,-41.015625,-31.73828125,-6.8359375,-15.625,0.0
1699138370.5109034,-63.4765625,-39.0625,-19.53125,-34.66796875,0.0
1699138370.5147994,-46.875,-36.1328125,-17.578125,-30.2734375,0.0
1699138370.5186956,-27.34375,-40.52734375,-12.6953125,-18.5546875,0.0
1699138370.5225918,-33.203125,-35.64453125,-18.06640625,-19.53125,0.0
1699138370.526488,-46.38671875,-25.390625,-17.578125,-32.2265625,0.0
1699138370.5303843,-30.2734375,-22.4609375,-12.6953125,-31.25,0.0
1699138370.5342805,-19.53125,-18.5546875,-15.13671875,-24.90234375,0.0
1699138370.5381768,-15.13671875,-17.08984375,-22.94921875,-29.78515625,0.0
1699138370.542073,-37.109375,-17.08984375,-32.71484375,-43.9453125,0.0
1699138370.5459692,-35.15625,-23.4375,-40.52734375,-40.0390625,0.0
1699138370.5498655,-21.484375,-24.4140625,-33.69140625,-34.66796875,0.0
1699138370.5537617,-14.6484375,-20.5078125,-27.34375,-38.0859375,0.0
1699138370.5577269,-27.34375,-30.76171875,-29.296875,-36.1328125,0.0
1699138370.561623,-32.2265625,-35.15625,-25.87890625,-27.83203125,0.0
1699138370.565519,-20.01953125,-23.92578125,-31.73828125,-26.85546875,0.0
1699138370.5694153,-13.671875,-35.15625,-42.48046875,-30.76171875,0.0
1699138370.5733116,-28.3203125,-29.78515625,-43.45703125,-36.62109375,0.0
1699138370.5772078,-42.48046875,-13.18359375,-34.66796875,-28.80859375,0.0
1699138370.581104,-33.69140625,-18.5546875,-37.59765625,-24.4140625,0.0
1699138370.5850003,-14.6484375,-18.06640625,-38.57421875,-22.4609375,0.0
1699138370.5888965,-20.99609375,-20.99609375,-26.3671875,-19.53125,0.0
1699138370.5927927,-41.9921875,-33.69140625,-18.06640625,-25.87890625,0.0
1699138370.596689,-29.78515625,-34.66796875,-20.01953125,-18.5546875,0.0
1699138370.6005852,-24.4140625,-31.25,-20.99609375,-13.18359375,0.0
1699138370.604621,-20.99609375,-34.66796875,-17.578125,-9.27734375,0.0
1699138370.6085172,-33.69140625,-32.2265625,-31.73828125,-13.18359375,0.0
1699138370.6124134,-28.80859375,-21.484375,-31.25,-7.32421875,0.0
1699138370.6163096,-11.23046875,-24.4140625,-13.18359375,-2.9296875,0.0
1699138370.6202059,-9.27734375,-23.92578125,-17.578125,-6.8359375,0.0
1699138370.624102,-39.55078125,-20.01953125,-28.80859375,-13.671875,0.0
1699138370.6279984,-45.41015625,-31.73828125,-29.296875,-10.25390625,0.0
1699138370.6318946,-36.62109375,-33.203125,-20.5078125,-10.25390625,0.0
1699138370.6357908,-30.2734375,-29.296875,-19.04296875,-12.20703125,0.0
1699138370.639687,-27.83203125,-42.48046875,-23.4375,-19.53125,0.0
1699138370.6435833,-39.0625,-47.36328125,-28.80859375,-27.83203125,0.0
1699138370.6474795,-25.390625,-41.50390625,-28.80859375,-18.06640625,0.0
1699138370.6514976,-7.8125,-32.71484375,-30.2734375,-9.765625,0.0
1699138370.6553938,-7.32421875,-21.484375,-29.296875,-14.6484375,0.0
1699138370.65929,-29.296875,-14.16015625,-25.87890625,-27.34375,0.0
1699138370.6631863,-29.296875,-25.390625,-26.3671875,-25.87890625,0.0
1699138370.6670825,-10.7421875,-27.83203125,-26.85546875,-24.90234375,0.0
1699138370.670979,-1.46484375,-25.390625,-30.76171875,-28.3203125,0.0
1699138370.6748753,-28.80859375,-29.296875,-37.59765625,-40.0390625,0.0
1699138370.6787715,-30.76171875,-26.85546875,-33.203125,-41.50390625,0.0
1699138370.6826677,-17.578125,-33.69140625,-26.85546875,-32.2265625,0.0
1699138370.686564,-5.37109375,-30.2734375,-34.1796875,-27.83203125,0.0
1699138370.6904602,-20.5078125,-22.94921875,-40.0390625,-41.50390625,0.0
1699138370.6943564,-27.34375,-26.3671875,-45.41015625,-43.9453125,0.0
1699138370.6983821,-21.97265625,-22.4609375,-42.96875,-39.55078125,0.0
1699138370.7022784,-26.85546875,-19.53125,-32.71484375,-41.015625,0.0
1699138370.7061746,-34.1796875,-23.92578125,-34.1796875,-38.57421875,0.0
1699138370.7100708,-45.41015625,-33.69140625,-32.2265625,-38.57421875,0.0
1699138370.713967,-44.43359375,-33.69140625,-29.78515625,-38.0859375,0.0
1699138370.7178636,-40.0390625,-28.80859375,-29.296875,-32.2265625,0.0
1699138370.7217598,-36.62109375,-27.34375,-20.99609375,-30.76171875,0.0
1699138370.725656,-50.29296875,-33.69140625,-25.87890625,-32.71484375,0.0
1699138370.7295523,-47.36328125,-40.52734375,-27.34375,-27.83203125,0.0
1699138370.7334485,-37.59765625,-30.2734375,-20.99609375,-24.90234375,0.0
1699138370.737345,-26.3671875,-23.92578125,-18.5546875,-21.484375,0.0
1699138370.7412412,-45.8984375,-28.3203125,-17.578125,-26.3671875,0.0
1699138370.7452517,-49.8046875,-28.80859375,-11.23046875,-28.80859375,0.0
1699138370.749148,-35.15625,-30.2734375,-13.671875,-23.92578125,0.0
1699138370.7530441,-20.5078125,-26.3671875,-20.5078125,-21.484375,0.0
1699138370.7569406,-33.69140625,-18.5546875,-33.203125,-31.25,0.0
1699138370.7608368,-40.0390625,-17.578125,-29.296875,-38.0859375,0.0
1699138370.764733,-22.94921875,-13.671875,-21.484375,-31.73828125,0.0
1699138370.7686293,-15.13671875,-22.94921875,-26.3671875,-29.78515625,0.0
1699138370.7725258,-17.08984375,-28.80859375,-24.90234375,-34.1796875,0.0
1699138370.776422,-28.3203125,-14.6484375,-23.92578125,-37.109375,0.0
1699138370.7803183,-27.34375,-9.27734375,-20.01953125,-41.015625,0.0
1699138370.7842145,-23.4375,-26.85546875,-27.34375,-47.36328125,0.0
1699138370.788111,-25.390625,-39.0625,-30.76171875,-45.8984375,0.0
1699138370.7921052,-41.9921875,-21.97265625,-30.2734375,-46.38671875,0.0
1699138370.7960014,-35.15625,-17.578125,-39.0625,-42.96875,0.0
1699138370.7998977,-30.76171875,-22.4609375,-43.45703125,-42.48046875,0.0
1699138370.8037941,-26.85546875,-21.484375,-34.1796875,-42.48046875,0.0
1699138370.8076904,-43.45703125,-28.3203125,-24.4140625,-48.828125,0.0
1699138370.8115866,-48.828125,-32.2265625,-24.4140625,-51.26953125,0.0
1699138370.815483,-39.55078125,-29.296875,-21.484375,-43.45703125,0.0
1699138370.8193793,-30.76171875,-32.2265625,-19.04296875,-34.66796875,0.0
1699138370.8232756,-42.96875,-36.1328125,-21.484375,-41.015625,0.0
1699138370.827172,-58.59375,-39.0625,-15.13671875,-44.43359375,0.0
1699138370.8310683,-49.31640625,-42.48046875,-20.5078125,-35.15625,0.0
1699138370.8349645,-32.71484375,-39.55078125,-32.71484375,-29.296875,0.0
1699138370.8389478,-34.66796875,-41.50390625,-31.25,-31.25,0.0
1699138370.842844,-55.6640625,-38.0859375,-23.92578125,-28.80859375,0.0
1699138370.8467405,-47.36328125,-35.15625,-39.0625,-26.85546875,0.0
1699138370.8506367,-41.015625,-39.55078125,-44.921875,-34.66796875,0.0
1699138370.854533,-45.41015625,-38.0859375,-32.71484375,-31.73828125,0.0
1699138370.8584294,-58.59375,-30.76171875,-27.34375,-31.73828125,0.0
1699138370.8623257,-48.33984375,-40.52734375,-20.5078125,-20.99609375,0.0
1699138370.8662221,-39.0625,-51.26953125,-19.53125,-11.71875,0.0
1699138370.8701184,-38.0859375,-36.62109375,-33.69140625,-19.04296875,0.0
1699138370.8740146,-52.24609375,-32.2265625,-31.25,-27.83203125,0.0
1699138370.877911,-52.734375,-36.62109375,-27.34375,-34.66796875,0.0
1699138370.8818073,-34.66796875,-39.55078125,-34.1796875,-26.3671875,0.0
1699138370.8857937,-17.578125,-39.55078125,-31.73828125,-13.671875,0.0
1699138370.8896902,-32.2265625,-39.0625,-40.52734375,-26.85546875,0.0
1699138370.8935864,-43.45703125,-33.203125,-45.8984375,-33.203125,0.0
1699138370.8974829,-27.83203125,-24.4140625,-41.015625,-29.296875,0.0
1699138370.901379,-18.5546875,-20.99609375,-37.109375,-33.69140625,0.0
1699138370.9052753,-13.671875,-23.92578125,-27.34375,-35.15625,0.0
1699138370.9091718,-34.66796875,-22.4609375,-35.15625,-45.41015625,0.0
1699138370.913068,-26.3671875,-11.71875,-47.36328125,-48.828125,0.0
1699138370.9169645,-15.625,-7.32421875,-46.875,-52.24609375,0.0
1699138370.9208608,-9.765625,-20.01953125,-40.0390625,-50.78125,0.0
1699138370.9247572,-27.34375,-24.4140625,-31.25,-47.8515625,0.0
1699138370.9286535,-29.296875,-25.87890625,-28.80859375,-35.64453125,0.0
1699138370.9326239,-13.671875,-34.66796875,-35.15625,-28.80859375,0.0
1699138370.9365203,-7.8125,-27.83203125,-45.8984375,-32.2265625,0.0
1699138370.9404166,-28.80859375,-24.4140625,-37.59765625,-36.62109375,0.0
1699138370.944313,-43.45703125,-23.4375,-28.3203125,-35.15625,0.0
1699138370.9482093,-35.15625,-24.4140625,-26.85546875,-31.25,0.0
1699138370.9521058,-27.34375,-44.43359375,-34.66796875,-25.390625,0.0
1699138370.956002,-41.015625,-40.52734375,-29.78515625,-26.3671875,0.0
1699138370.9598982,-42.96875,-20.5078125,-14.16015625,-26.3671875,0.0
1699138370.9637947,-30.76171875,-19.53125,-14.16015625,-14.6484375,0.0
1699138370.967691,-20.5078125,-24.90234375,-15.625,-13.671875,0.0
1699138370.9715874,-19.04296875,-28.3203125,-18.06640625,-18.5546875,0.0
1699138370.9754837,-40.52734375,-29.78515625,-22.94921875,-22.4609375,0.0
1699138370.9795215,-32.2265625,-45.41015625,-19.53125,-17.578125,0.0
1699138370.9834177,-23.4375,-45.8984375,-20.99609375,-20.5078125,0.0
1699138370.9873142,-23.4375,-30.2734375,-25.87890625,-25.390625,0.0
1699138370.9912105,-42.96875,-20.5078125,-20.5078125,-24.90234375,0.0
1699138370.995107,-38.0859375,-20.99609375,-14.6484375,-23.4375,0.0
1699138370.9990032,-31.73828125,-25.390625,-19.04296875,-20.99609375,0.0
1699138371.0028996,-28.80859375,-29.296875,-24.4140625,-20.01953125,0.0
1699138371.0067961,-41.015625,-38.57421875,-21.484375,-26.3671875,0.0
1699138371.0106924,-45.8984375,-29.78515625,-22.94921875,-27.83203125,0.0
1699138371.0145888,-25.390625,-37.109375,-31.25,-19.53125,0.0
1699138371.018485,-20.01953125,-51.26953125,-33.203125,-17.578125,0.0
1699138371.0223815,-34.1796875,-35.64453125,-35.15625,-26.85546875,0.0
1699138371.0264857,-42.96875,-24.90234375,-39.55078125,-38.57421875,0.0
1699138371.0303822,-28.80859375,-24.4140625,-39.0625,-36.62109375,0.0
1699138371.0342784,-18.06640625,-21.484375,-37.109375,-26.3671875,0.0
1699138371.0381749,-17.08984375,-18.5546875,-45.41015625,-25.390625,0.0
1699138371.0420713,-37.59765625,-20.5078125,-39.0625,-27.83203125,0.0
1699138371.0459676,-23.4375,-36.1328125,-36.1328125,-23.92578125,0.0
1699138371.049864,-6.34765625,-40.52734375,-31.25,-19.04296875,0.0
1699138371.0537605,-15.625,-37.59765625,-34.1796875,-25.390625,0.0
1699138371.057657,-35.15625,-44.921875,-46.38671875,-26.85546875,0.0
1699138371.0615532,-33.69140625,-43.45703125,-40.0390625,-20.5078125,0.0
1699138371.0654497,-22.4609375,-32.2265625,-33.69140625,-19.53125,0.0
1699138371.0693462,-12.20703125,-27.34375,-36.1328125,-12.6953125,0.0
1699138371.0733535,-31.25,-22.94921875,-40.52734375,-20.5078125,0.0
1699138371.07725,-40.0390625,-17.578125,-40.0390625,-22.4609375,0.0
1699138371.0811462,-21.97265625,-21.484375,-36.1328125,-17.08984375,0.0
1699138371.0850427,-20.01953125,-31.73828125,-29.296875,-14.6484375,0.0
1699138371.0889392,-29.78515625,-37.59765625,-28.80859375,-19.04296875,0.0
1699138371.0928357,-41.9921875,-33.69140625,-21.97265625,-27.34375,0.0
1699138371.096732,-23.4375,-29.78515625,-24.90234375,-26.3671875,0.0
1699138371.1006284,-13.18359375,-25.87890625,-31.25,-19.53125,0.0
1699138371.1045249,-21.97265625,-30.2734375,-20.99609375,-13.671875,0.0
1699138371.1084213,-38.0859375,-20.99609375,-27.34375,-27.83203125,0.0
1699138371.1123176,-26.3671875,-9.27734375,-33.203125,-32.2265625,0.0
1699138371.116214,-19.04296875,-13.671875,-26.3671875,-21.97265625,0.0
1699138371.1202273,-13.671875,-19.53125,-24.90234375,-18.5546875,0.0
1699138371.1241238,-38.57421875,-23.92578125,-26.3671875,-37.59765625,0.0
1699138371.1280203,-43.9453125,-19.04296875,-23.92578125,-35.15625,0.0
1699138371.1319168,-22.94921875,-25.390625,-30.76171875,-21.484375,0.0
1699138371.1358132,-17.578125,-25.87890625,-27.83203125,-24.90234375,0.0
1699138371.1397097,-31.73828125,-21.97265625,-20.01953125,-34.66796875,0.0
1699138371.143606,-40.52734375,-30.76171875,-25.390625,-42.96875,0.0
1699138371.1475024,-33.69140625,-32.71484375,-27.34375,-40.52734375,0.0
1699138371.151399,-27.83203125,-30.2734375,-31.73828125,-40.0390625,0.0
1699138371.1552954,-28.80859375,-24.4140625,-38.0859375,-41.50390625,0.0
1699138371.1591918,-45.41015625,-12.6953125,-43.45703125,-38.57421875,0.0
1699138371.1630883,-38.0859375,-25.390625,-48.33984375,-38.0859375,0.0
1699138371.1670854,-22.94921875,-41.015625,-46.38671875,-36.62109375,0.0
1699138371.170982,-15.625,-34.66796875,-34.1796875,-28.3203125,0.0
1699138371.1748781,-33.203125,-30.2734375,-38.0859375,-29.78515625,0.0
1699138371.1787746,-24.90234375,-25.87890625,-43.45703125,-20.01953125,0.0
1699138371.182671,-16.6015625,-25.87890625,-34.66796875,-17.08984375,0.0
1699138371.1865675,-13.671875,-21.484375,-37.109375,-19.53125,0.0
1699138371.190464,-32.71484375,-31.25,-38.0859375,-25.87890625,0.0
1699138371.1943605,-38.57421875,-41.9921875,-28.3203125,-24.90234375,0.0
1699138371.198257,-20.5078125,-20.5078125,-24.4140625,-20.5078125,0.0
1699138371.2021534,-13.671875,-14.16015625,-39.55078125,-25.390625,0.0
1699138371.20605,-22.94921875,-19.53125,-50.78125,-32.2265625,0.0
1699138371.2099462,-35.64453125,-27.83203125,-45.41015625,-28.80859375,0.0
1699138371.2139316,-31.25,-37.109375,-38.57421875,-20.99609375,0.0
1699138371.217828,-20.99609375,-36.1328125,-39.0625,-19.04296875,0.0
1699138371.2217245,-20.99609375,-28.3203125,-37.59765625,-20.01953125,0.0
1699138371.225621,-35.15625,-20.5078125,-27.34375,-28.80859375,0.0
1699138371.2295175,-22.94921875,-20.5078125,-26.3671875,-31.25,0.0
1699138371.233414,-9.765625,-17.08984375,-21.97265625,-25.87890625,0.0
1699138371.2373104,-1.953125,-25.390625,-29.296875,-20.99609375,0.0
1699138371.241207,-21.97265625,-35.15625,-40.52734375,-24.4140625,0.0
1699138371.2451034,-23.4375,-25.390625,-37.109375,-24.90234375,0.0
1699138371.2489998,-14.6484375,-12.6953125,-41.50390625,-27.83203125,0.0
1699138371.2528963,-3.41796875,-19.53125,-40.52734375,-29.78515625,0.0
1699138371.2567928,-23.92578125,-31.73828125,-33.69140625,-40.0390625,0.0
1699138371.2607625,-43.45703125,-26.3671875,-38.57421875,-45.41015625,0.0
1699138371.264659,-31.25,-17.578125,-44.921875,-36.62109375,0.0
1699138371.2685554,-21.97265625,-20.01953125,-42.96875,-33.69140625,0.0
1699138371.2724519,-35.64453125,-24.90234375,-33.69140625,-37.109375,0.0
1699138371.2763484,-47.36328125,-24.4140625,-26.85546875,-35.64453125,0.0
1699138371.2802448,-26.3671875,-26.3671875,-30.2734375,-29.78515625,0.0
1699138371.2841413,-15.625,-29.78515625,-31.73828125,-26.85546875,0.0
1699138371.2880378,-23.92578125,-37.109375,-30.2734375,-23.92578125,0.0
1699138371.2919343,-38.57421875,-24.4140625,-30.2734375,-27.83203125,0.0
1699138371.2958307,-24.4140625,-11.71875,-30.76171875,-24.90234375,0.0
1699138371.2997272,-23.92578125,-33.69140625,-28.80859375,-24.90234375,0.0
1699138371.3036237,-24.90234375,-36.1328125,-33.203125,-28.80859375,0.0
1699138371.3075993,-50.78125,-21.97265625,-46.38671875,-33.69140625,0.0
1699138371.3114958,-51.26953125,-23.4375,-40.0390625,-29.78515625,0.0
1699138371.3153923,-34.1796875,-31.73828125,-31.25,-23.4375,0.0
1699138371.3192887,-28.80859375,-37.109375,-24.4140625,-20.5078125,0.0
1699138371.3231852,-40.0390625,-41.9921875,-27.83203125,-28.80859375,0.0
1699138371.3270817,-53.7109375,-43.45703125,-40.52734375,-29.78515625,0.0
1699138371.3309782,-32.2265625,-41.015625,-21.484375,-18.5546875,0.0
1699138371.3348746,-10.7421875,-34.66796875,-10.25390625,-20.01953125,0.0
1699138371.338771,-24.90234375,-31.25,-11.71875,-35.15625,0.0
1699138371.3426676,-48.828125,-41.015625,-14.6484375,-41.50390625,0.0
1699138371.346564,-39.55078125,-31.25,-26.85546875,-35.64453125,0.0
1699138371.3504605,-32.71484375,-24.90234375,-25.87890625,-39.55078125,0.0
1699138371.3545222,-36.1328125,-33.203125,-25.390625,-43.45703125,0.0
1699138371.3584187,-53.22265625,-25.87890625,-36.1328125,-46.38671875,0.0
1699138371.3623154,-47.36328125,-17.08984375,-40.52734375,-47.36328125,0.0
1699138371.366212,-38.0859375,-23.92578125,-37.109375,-46.875,0.0
1699138371.3701084,-41.50390625,-31.25,-30.76171875,-43.45703125,0.0
1699138371.3740048,-58.10546875,-27.34375,-33.203125,-43.45703125,0.0
1699138371.3779013,-48.33984375,-23.4375,-30.2734375,-36.1328125,0.0
1699138371.3817978,-43.45703125,-28.3203125,-23.4375,-38.57421875,0.0
1699138371.3856943,-37.59765625,-36.1328125,-30.2734375,-39.55078125,0.0
1699138371.3895907,-45.8984375,-47.36328125,-34.1796875,-40.0390625,0.0
1699138371.3934875,-52.734375,-44.921875,-42.96875,-40.0390625,0.0
1699138371.397384,-36.62109375,-30.2734375,-56.640625,-34.66796875,0.0
1699138371.4014113,-20.01953125,-25.87890625,-51.7578125,-32.71484375,0.0
1699138371.405308,-34.66796875,-28.3203125,-35.15625,-34.1796875,0.0
1699138371.4092045,-53.22265625,-21.484375,-28.3203125,-36.1328125,0.0
1699138371.413101,-36.62109375,-29.296875,-30.76171875,-33.203125,0.0
1699138371.4169974,-20.99609375,-34.66796875,-36.1328125,-28.80859375,0.0
1699138371.420894,-19.04296875,-25.390625,-37.59765625,-31.73828125,0.0
1699138371.4247906,-41.9921875,-20.99609375,-26.85546875,-37.59765625,0.0
1699138371.428687,-29.78515625,-20.99609375,-27.83203125,-29.78515625,0.0
1699138371.4325836,-9.27734375,-26.3671875,-35.64453125,-24.90234375,0.0
1699138371.43648,2.9296875,-30.2734375,-36.62109375,-21.484375,0.0
1699138371.4403765,-19.04296875,-34.1796875,-34.66796875,-27.83203125,0.0
1699138371.4442732,-24.90234375,-31.73828125,-41.015625,-29.296875,0.0
1699138371.4482858,-16.11328125,-25.390625,-41.015625,-24.90234375,0.0
1699138371.4521823,-18.06640625,-18.5546875,-30.2734375,-25.87890625,0.0
1699138371.4560788,-29.78515625,-19.04296875,-29.78515625,-34.66796875,0.0
1699138371.4599755,-34.66796875,-21.97265625,-30.2734375,-39.55078125,0.0
1699138371.463872,-15.625,-21.97265625,-22.94921875,-31.73828125,0.0
1699138371.4677684,-4.8828125,-26.85546875,-27.34375,-26.3671875,0.0
1699138371.4716651,-23.4375,-23.4375,-26.85546875,-29.78515625,0.0
1699138371.4755616,-48.33984375,-28.3203125,-20.99609375,-37.59765625,0.0
1699138371.479458,-41.50390625,-32.71484375,-23.92578125,-33.203125,0.0
1699138371.4833546,-33.203125,-37.109375,-21.484375,-31.73828125,0.0
1699138371.4872513,-27.34375,-52.24609375,-35.15625,-37.59765625,0.0
1699138371.4911478,-45.8984375,-46.38671875,-34.1796875,-41.015625,0.0
1699138371.4951453,-48.33984375,-30.76171875,-20.99609375,-38.0859375,0.0
1699138371.499042,-41.9921875,-29.78515625,-19.53125,-34.1796875,0.0
1699138371.5029385,-41.015625,-34.1796875,-18.06640625,-35.15625,0.0
1699138371.506835,-65.4296875,-39.0625,-18.06640625,-46.38671875,0.0
1699138371.5107317,-71.77734375,-45.8984375,-19.53125,-44.43359375,0.0
1699138371.5146282,-53.7109375,-46.875,-24.4140625,-30.2734375,0.0
1699138371.5185246,-41.9921875,-47.36328125,-22.4609375,-31.25,0.0
1699138371.5224214,-49.8046875,-46.875,-20.5078125,-41.9921875,0.0
1699138371.5263178,-62.98828125,-42.96875,-28.80859375,-43.9453125,0.0
1699138371.5302143,-49.31640625,-44.921875,-32.2265625,-42.96875,0.0
1699138371.534111,-34.66796875,-51.7578125,-22.94921875,-33.69140625,0.0
1699138371.5380075,-41.9921875,-49.8046875,-23.4375,-38.57421875,0.0
1699138371.5420098,-66.89453125,-46.38671875,-32.2265625,-53.7109375,0.0
1699138371.5459065,-48.828125,-43.45703125,-41.50390625,-41.015625,0.0
1699138371.549803,-31.25,-30.76171875,-40.52734375,-35.64453125,0.0
1699138371.5536997,-36.1328125,-33.203125,-29.78515625,-37.109375,0.0
1699138371.5575962,-50.29296875,-36.62109375,-22.94921875,-35.64453125,0.0
1699138371.5614927,-42.48046875,-31.73828125,-24.4140625,-32.2265625,0.0
1699138371.5653894,-30.2734375,-31.73828125,-32.71484375,-34.66796875,0.0
1699138371.5692859,-24.90234375,-34.1796875,-31.73828125,-30.2734375,0.0
1699138371.5731826,-34.1796875,-29.296875,-23.4375,-29.296875,0.0
1699138371.577079,-28.80859375,-18.06640625,-26.3671875,-31.25,0.0
1699138371.5809758,-13.671875,-15.13671875,-32.71484375,-23.4375,0.0
1699138371.5848722,-1.953125,-24.90234375,-27.83203125,-14.6484375,0.0
1699138371.588859,-10.7421875,-21.484375,-28.3203125,-21.97265625,0.0
1699138371.5927556,-31.25,-12.20703125,-30.2734375,-28.80859375,0.0
1699138371.5966523,-19.04296875,-17.08984375,-35.64453125,-19.53125,0.0
1699138371.6005487,-6.8359375,-27.34375,-40.52734375,-18.5546875,0.0
1699138371.6044455,-8.30078125,-14.16015625,-22.94921875,-23.92578125,0.0
1699138371.608342,-28.3203125,-7.8125,-15.13671875,-27.34375,0.0
1699138371.6122384,-24.90234375,-25.87890625,-36.62109375,-20.5078125,0.0
1699138371.6161351,-14.6484375,-22.4609375,-37.109375,-20.01953125,0.0
1699138371.6200316,-9.765625,-23.4375,-23.92578125,-22.4609375,0.0
1699138371.6239283,-28.80859375,-34.66796875,-22.94921875,-28.80859375,0.0
1699138371.6278248,-27.83203125,-27.34375,-13.18359375,-25.390625,0.0
1699138371.6317215,-27.34375,-25.390625,-12.6953125,-22.94921875,0.0
1699138371.6356957,-20.5078125,-29.296875,-18.5546875,-16.6015625,0.0
1699138371.6395924,-31.73828125,-25.390625,-23.92578125,-18.5546875,0.0
1699138371.643489,-44.43359375,-18.06640625,-30.76171875,-23.4375,0.0
1699138371.6473856,-31.73828125,-26.85546875,-29.296875,-22.4609375,0.0
1699138371.651282,-18.06640625,-41.9921875,-26.85546875,-28.80859375,0.0
1699138371.6551788,-28.80859375,-35.15625,-35.15625,-40.52734375,0.0
1699138371.6590753,-46.875,-28.3203125,-30.76171875,-39.0625,0.0
1699138371.662972,-29.78515625,-20.99609375,-21.97265625,-29.296875,0.0
1699138371.6668684,-23.4375,-23.4375,-27.34375,-26.3671875,0.0
1699138371.6707652,-25.390625,-32.2265625,-35.15625,-29.78515625,0.0
1699138371.6746616,-38.0859375,-26.3671875,-32.2265625,-37.59765625,0.0
1699138371.6785583,-36.62109375,-27.34375,-37.109375,-33.69140625,0.0
1699138371.682518,-28.80859375,-34.1796875,-53.22265625,-36.1328125,0.0
1699138371.6864145,-27.34375,-38.0859375,-51.26953125,-34.66796875,0.0
1699138371.6903112,-42.96875,-32.71484375,-43.45703125,-33.203125,0.0
1699138371.6942077,-35.15625,-21.97265625,-29.296875,-26.3671875,0.0
1699138371.6981044,-23.92578125,-22.4609375,-24.4140625,-18.5546875,0.0
1699138371.7020009,-11.71875,-33.69140625,-33.203125,-13.18359375,0.0
1699138371.7058976,-25.390625,-37.59765625,-31.25,-12.6953125,0.0
1699138371.709794,-36.1328125,-34.66796875,-22.94921875,-14.6484375,0.0
1699138371.7136908,-18.5546875,-33.203125,-21.97265625,-13.18359375,0.0
1699138371.7175872,-8.7890625,-30.76171875,-24.4140625,-10.7421875,0.0
1699138371.721484,-20.99609375,-33.203125,-22.94921875,-15.625,0.0
1699138371.7253804,-43.9453125,-40.52734375,-20.99609375,-26.3671875,0.0
1699138371.729406,-36.62109375,-34.66796875,-32.2265625,-23.4375,0.0
1699138371.7333028,-27.83203125,-21.484375,-36.1328125,-25.390625,0.0
1699138371.7371993,-31.25,-18.06640625,-36.1328125,-26.85546875,0.0
1699138371.741096,-48.33984375,-18.5546875,-38.57421875,-26.85546875,0.0
1699138371.7449925,-36.62109375,-19.53125,-29.296875,-31.25,0.0
1699138371.7488892,-24.4140625,-20.01953125,-29.296875,-37.59765625,0.0
1699138371.752786,-20.01953125,-32.71484375,-19.04296875,-34.66796875,0.0
1699138371.7566824,-38.57421875,-39.0625,-12.6953125,-41.50390625,0.0
1699138371.760579,-39.0625,-20.5078125,-30.76171875,-46.875,0.0
1699138371.7644758,-24.4140625,-14.16015625,-32.71484375,-34.1796875,0.0
1699138371.7683723,-24.90234375,-23.4375,-26.3671875,-32.2265625,0.0
1699138371.772269,-47.36328125,-22.4609375,-24.4140625,-45.8984375,0.0
1699138371.7762983,-61.5234375,-23.4375,-25.390625,-54.6875,0.0
1699138371.780195,-54.19921875,-30.2734375,-30.2734375,-51.7578125,0.0
1699138371.7840915,-42.48046875,-26.85546875,-21.484375,-45.41015625,0.0
1699138371.7879882,-45.41015625,-32.71484375,-22.94921875,-47.8515625,0.0
1699138371.791885,-60.05859375,-38.57421875,-42.96875,-49.8046875,0.0
1699138371.7957816,-47.36328125,-41.015625,-42.48046875,-41.9921875,0.0
1699138371.799678,-35.64453125,-58.10546875,-24.4140625,-45.41015625,0.0
1699138371.8035748,-30.2734375,-48.33984375,-32.71484375,-52.24609375,0.0
1699138371.8074715,-54.19921875,-21.97265625,-42.96875,-51.26953125,0.0
1699138371.811368,-52.734375,-17.08984375,-29.78515625,-47.36328125,0.0
1699138371.8152647,-33.69140625,-23.4375,-26.3671875,-47.36328125,0.0
1699138371.8191614,-19.53125,-28.80859375,-35.64453125,-39.55078125,0.0
1699138371.8231776,-39.55078125,-24.4140625,-51.7578125,-41.015625,0.0
1699138371.8270743,-47.36328125,-29.78515625,-51.26953125,-44.43359375,0.0
1699138371.8309708,-30.2734375,-34.66796875,-34.1796875,-38.57421875,0.0
1699138371.8348675,-25.390625,-28.3203125,-28.3203125,-29.78515625,0.0
1699138371.8387642,-36.1328125,-31.25,-25.87890625,-32.2265625,0.0
1699138371.842661,-35.15625,-36.62109375,-21.484375,-31.25,0.0
1699138371.8465576,-22.4609375,-31.73828125,-20.01953125,-21.484375,0.0
1699138371.850454,-16.11328125,-29.296875,-25.87890625,-17.08984375,0.0
1699138371.8543508,-20.5078125,-30.2734375,-24.90234375,-19.53125,0.0
1699138371.8582475,-46.875,-23.4375,-21.484375,-27.83203125,0.0
1699138371.8621442,-42.48046875,-25.87890625,-25.390625,-27.34375,0.0
1699138371.8660407,-27.34375,-32.71484375,-26.85546875,-23.4375,0.0
1699138371.870042,-23.4375,-41.50390625,-25.87890625,-20.99609375,0.0
1699138371.8739388,-50.78125,-42.96875,-27.34375,-29.296875,0.0
1699138371.8778355,-47.36328125,-26.85546875,-33.69140625,-27.34375,0.0
1699138371.8817322,-32.2265625,-32.71484375,-25.390625,-19.53125,0.0
1699138371.885629,-25.87890625,-46.875,-18.5546875,-19.53125,0.0
1699138371.8895254,-43.45703125,-43.45703125,-25.87890625,-29.78515625,0.0
1699138371.8934221,-54.19921875,-41.9921875,-26.3671875,-32.2265625,0.0
1699138371.8973188,-39.0625,-41.015625,-26.3671875,-27.34375,0.0
1699138371.9012156,-21.484375,-31.73828125,-21.97265625,-26.3671875,0.0
1699138371.9051123,-27.83203125,-23.4375,-21.97265625,-29.296875,0.0
1699138371.909009,-48.33984375,-21.97265625,-30.76171875,-31.25,0.0
1699138371.9129055,-31.73828125,-21.97265625,-39.0625,-26.85546875,0.0
1699138371.9168973,-12.6953125,-28.80859375,-38.57421875,-20.99609375,0.0
1699138371.9207938,-14.16015625,-36.62109375,-37.109375,-26.85546875,0.0
1699138371.9246905,-34.1796875,-28.80859375,-21.97265625,-36.62109375,0.0
1699138371.9285872,-21.484375,-15.625,-10.25390625,-25.87890625,0.0
1699138371.932484,-3.41796875,-20.5078125,-20.01953125,-20.99609375,0.0
1699138371.9363806,-5.37109375,-34.1796875,-24.90234375,-24.4140625,0.0
1699138371.9402773,-38.0859375,-28.80859375,-22.4609375,-34.1796875,0.0
1699138371.944174,-35.64453125,-24.90234375,-23.4375,-32.71484375,0.0
1699138371.9480708,-16.6015625,-30.76171875,-30.76171875,-29.78515625,0.0
1699138371.9519675,-6.34765625,-18.5546875,-49.31640625,-26.85546875,0.0
1699138371.955864,-26.3671875,-13.18359375,-53.7109375,-30.76171875,0.0
1699138371.9597607,-37.109375,-25.87890625,-31.25,-32.2265625,0.0
1699138371.9637535,-21.97265625,-28.3203125,-26.85546875,-35.64453125,0.0
1699138371.9676502,-12.6953125,-30.76171875,-23.4375,-39.55078125,0.0
1699138371.971547,-26.85546875,-29.78515625,-21.97265625,-39.0625,0.0
1699138371.9754436,-55.17578125,-27.34375,-23.4375,-47.36328125,0.0
1699138371.9793403,-39.0625,-30.2734375,-18.06640625,-44.43359375,0.0
1699138371.983237,-23.4375,-26.3671875,-35.64453125,-36.1328125,0.0
1699138371.9871337,-29.78515625,-29.296875,-38.0859375,-35.64453125,0.0
1699138371.9910302,-47.8515625,-38.0859375,-24.4140625,-40.52734375,0.0
1699138371.994927,-32.2265625,-46.875,-17.578125,-36.62109375,0.0
1699138371.9988236,-21.484375,-44.43359375,-13.18359375,-33.203125,0.0
1699138372.0027204,-18.5546875,-30.2734375,-20.01953125,-30.2734375,0.0
1699138372.006617,-35.15625,-25.390625,-28.80859375,-31.25,0.0
1699138372.0105963,-37.109375,-32.2265625,-27.34375,-29.296875,0.0
1699138372.014493,-23.92578125,-30.2734375,-27.34375,-26.85546875,0.0
1699138372.0183897,-12.20703125,-21.97265625,-29.78515625,-17.578125,0.0
1699138372.0222864,-27.83203125,-25.390625,-22.94921875,-18.06640625,0.0
1699138372.0261831,-47.8515625,-40.52734375,-19.04296875,-24.90234375,0.0
1699138372.0300798,-22.4609375,-45.8984375,-19.04296875,-13.18359375,0.0
1699138372.0339766,-0.9765625,-44.921875,-29.296875,-7.8125,0.0
1699138372.0378733,-17.08984375,-38.57421875,-39.0625,-13.671875,0.0
1699138372.04177,-32.2265625,-29.78515625,-24.4140625,-16.6015625,0.0
1699138372.0456667,-10.25390625,-32.2265625,-26.3671875,-7.32421875,0.0
1699138372.0495634,-0.48828125,-29.296875,-35.64453125,-8.30078125,0.0
1699138372.0534601,-4.8828125,-22.4609375,-33.69140625,-12.6953125,0.0
1699138372.0574238,-29.78515625,-22.94921875,-35.64453125,-16.6015625,0.0
1699138372.0613205,-28.3203125,-29.296875,-26.85546875,-19.53125,0.0
1699138372.0652173,-20.01953125,-31.25,-34.1796875,-25.390625,0.0
1699138372.069114,-18.06640625,-30.76171875,-54.6875,-19.53125,0.0
1699138372.0730107,-35.15625,-30.76171875,-42.48046875,-21.484375,0.0
1699138372.0769074,-29.296875,-31.73828125,-22.4609375,-21.484375,0.0
1699138372.080804,-26.3671875,-23.4375,-21.484375,-23.4375,0.0
1699138372.0847008,-20.99609375,-24.90234375,-19.04296875,-27.34375,0.0
1699138372.0885975,-27.83203125,-44.43359375,-11.71875,-24.90234375,0.0
1699138372.0924942,-41.9921875,-37.109375,-16.6015625,-27.34375,0.0
1699138372.096391,-27.83203125,-18.06640625,-22.94921875,-29.296875,0.0
1699138372.1002877,-20.5078125,-23.92578125,-13.671875,-25.87890625,0.0
1699138372.1043181,-27.83203125,-29.296875,-23.4375,-33.203125,0.0
1699138372.1082149,-41.50390625,-20.01953125,-37.59765625,-42.48046875,0.0
1699138372.1121116,-35.64453125,-15.13671875,-21.484375,-44.43359375,0.0
1699138372.1160085,-25.87890625,-20.99609375,-20.5078125,-34.1796875,0.0
1699138372.1199052,-28.3203125,-30.2734375,-38.0859375,-32.71484375,0.0
1699138372.123802,-61.03515625,-36.62109375,-36.62109375,-53.22265625,0.0
1699138372.1276987,-58.10546875,-38.0859375,-23.92578125,-48.33984375,0.0
1699138372.1315954,-42.96875,-41.50390625,-24.90234375,-38.0859375,0.0
1699138372.135492,-37.59765625,-40.52734375,-29.78515625,-39.55078125,0.0
1699138372.1393888,-56.15234375,-35.64453125,-22.4609375,-46.38671875,0.0
1699138372.1432855,-67.87109375,-31.73828125,-22.94921875,-51.26953125,0.0
1699138372.1471822,-59.5703125,-29.78515625,-28.80859375,-47.36328125,0.0
1699138372.1512754,-44.921875,-32.71484375,-31.73828125,-39.55078125,0.0
1699138372.155172,-52.734375,-39.0625,-48.33984375,-46.38671875,0.0
1699138372.1590688,-63.96484375,-40.0390625,-44.43359375,-50.78125,0.0
1699138372.1629655,-41.015625,-39.0625,-22.94921875,-46.38671875,0.0
1699138372.1668625,-22.4609375,-40.0390625,-21.97265625,-37.59765625,0.0
1699138372.1707592,-23.92578125,-46.875,-35.64453125,-30.76171875,0.0
1699138372.174656,-37.59765625,-37.59765625,-38.0859375,-33.203125,0.0
1699138372.1785526,-20.99609375,-29.78515625,-24.4140625,-25.390625,0.0
1699138372.1824493,-13.18359375,-27.83203125,-22.4609375,-19.53125,0.0
1699138372.1863463,-13.671875,-33.203125,-32.2265625,-14.16015625,0.0
1699138372.190243,-25.390625,-39.55078125,-31.73828125,-19.53125,0.0
1699138372.1941397,-23.4375,-34.1796875,-31.73828125,-18.5546875,0.0
1699138372.1981592,-11.23046875,-30.2734375,-41.9921875,-15.13671875,0.0
1699138372.2020562,-1.953125,-29.296875,-37.59765625,-18.06640625,0.0
1699138372.205953,-25.87890625,-29.296875,-27.34375,-22.94921875,0.0
1699138372.2098496,-33.203125,-29.78515625,-23.92578125,-21.97265625,0.0
1699138372.2137465,-17.08984375,-38.0859375,-21.97265625,-21.97265625,0.0
1699138372.2176433,-8.30078125,-39.55078125,-21.97265625,-17.578125,0.0
1699138372.22154,-28.3203125,-41.015625,-41.015625,-23.92578125,0.0
1699138372.225437,-47.8515625,-29.78515625,-39.0625,-29.78515625,0.0
1699138372.2293336,-39.55078125,-17.578125,-29.296875,-28.80859375,0.0
1699138372.2332304,-32.2265625,-27.83203125,-41.015625,-38.0859375,0.0
1699138372.237127,-30.76171875,-31.25,-39.0625,-38.0859375,0.0
1699138372.241024,-57.6171875,-32.2265625,-25.87890625,-43.45703125,0.0
1699138372.2450306,-56.640625,-37.59765625,-17.08984375,-37.59765625,0.0
1699138372.2489274,-48.828125,-49.8046875,-21.97265625,-37.109375,0.0
1699138372.2528243,-46.38671875,-54.6875,-29.296875,-40.0390625,0.0
1699138372.256721,-69.82421875,-44.921875,-28.3203125,-48.828125,0.0
1699138372.2606177,-73.73046875,-49.31640625,-28.80859375,-52.24609375,0.0
1699138372.2645147,-53.7109375,-56.640625,-29.296875,-50.78125,0.0
1699138372.2684114,-47.36328125,-52.734375,-27.34375,-53.22265625,0.0
1699138372.272308,-67.87109375,-43.9453125,-31.25,-55.6640625,0.0
1699138372.276205,-71.2890625,-39.55078125,-33.69140625,-53.7109375,0.0
1699138372.2801018,-60.05859375,-37.109375,-39.55078125,-51.7578125,0.0
1699138372.2839987,-44.921875,-38.57421875,-44.921875,-48.828125,0.0
1699138372.2878954,-36.1328125,-34.1796875,-34.1796875,-44.921875,0.0
1699138372.2918854,-39.0625,-32.71484375,-26.85546875,-42.96875,0.0
1699138372.295782,-23.92578125,-31.25,-33.203125,-35.15625,0.0
1699138372.299679,-7.32421875,-20.01953125,-38.0859375,-29.78515625,0.0
1699138372.3035758,2.44140625,-19.53125,-41.015625,-29.78515625,0.0
1699138372.3074727,-9.27734375,-22.94921875,-44.43359375,-33.69140625,0.0
1699138372.3113694,-11.23046875,-23.92578125,-34.1796875,-32.71484375,0.0
1699138372.3152664,-8.7890625,-20.5078125,-20.5078125,-29.78515625,0.0
1699138372.319163,-0.48828125,-20.01953125,-26.3671875,-24.4140625,0.0
1699138372.3230598,-11.23046875,-14.6484375,-31.25,-29.78515625,0.0
1699138372.3269567,-16.11328125,-15.625,-33.203125,-29.296875,0.0
1699138372.3308535,-12.20703125,-32.2265625,-36.62109375,-24.4140625,0.0
1699138372.3347504,0.48828125,-28.3203125,-32.71484375,-22.4609375,0.0
1699138372.3388042,-22.4609375,-22.4609375,-25.390625,-31.73828125,0.0
1699138372.342701,-48.33984375,-33.203125,-34.66796875,-35.15625,0.0
1699138372.346598,-36.1328125,-44.43359375,-33.69140625,-25.87890625,0.0
1699138372.3504946,-25.390625,-39.0625,-23.4375,-18.06640625,0.0
1699138372.3543916,-35.15625,-23.92578125,-20.5078125,-22.4609375,0.0
1699138372.3582883,-51.7578125,-20.99609375,-16.6015625,-31.73828125,0.0
1699138372.3621852,-38.0859375,-26.3671875,-19.53125,-23.4375,0.0
1699138372.366082,-26.85546875,-30.76171875,-24.4140625,-17.08984375,0.0
1699138372.369979,-25.390625,-34.66796875,-21.97265625,-17.578125,0.0
1699138372.3738756,-46.38671875,-41.015625,-21.97265625,-23.92578125,0.0
1699138372.3777726,-42.48046875,-45.41015625,-32.2265625,-22.4609375,0.0
1699138372.3816693,-27.83203125,-48.33984375,-31.73828125,-17.578125,0.0
1699138372.3856502,-33.203125,-40.0390625,-20.99609375,-17.08984375,0.0
1699138372.3895469,-49.31640625,-33.69140625,-25.87890625,-20.01953125,0.0
1699138372.3934438,-40.0390625,-38.57421875,-24.4140625,-21.484375,0.0
1699138372.3973405,-27.83203125,-27.83203125,-14.16015625,-23.92578125,0.0
1699138372.4012375,-19.04296875,-17.08984375,-15.625,-19.53125,0.0
1699138372.4051342,-35.15625,-22.94921875,-22.94921875,-30.76171875,0.0
1699138372.4090312,-50.29296875,-23.92578125,-14.16015625,-37.59765625,0.0
1699138372.412928,-35.15625,-25.87890625,-25.87890625,-26.85546875,0.0
1699138372.4168248,-16.6015625,-26.85546875,-44.43359375,-21.484375,0.0
1699138372.4207218,-13.671875,-23.4375,-33.203125,-29.78515625,0.0
1699138372.4246185,-30.2734375,-27.34375,-26.3671875,-27.83203125,0.0
1699138372.4285154,-20.5078125,-21.484375,-23.4375,-18.06640625,0.0
1699138372.4324827,-9.27734375,-18.5546875,-18.5546875,-22.94921875,0.0
1699138372.4363794,-8.7890625,-20.5078125,-22.4609375,-27.83203125,0.0
1699138372.4402764,-34.1796875,-19.04296875,-23.92578125,-33.203125,0.0
1699138372.444173,-40.0390625,-28.3203125,-21.97265625,-32.71484375,0.0
1699138372.44807,-36.1328125,-35.15625,-30.2734375,-35.15625,0.0
1699138372.451967,-20.5078125,-33.69140625,-30.76171875,-33.69140625,0.0
1699138372.4558637,-40.52734375,-34.66796875,-32.2265625,-44.921875,0.0
1699138372.4597607,-58.10546875,-41.015625,-36.62109375,-49.31640625,0.0
1699138372.4636574,-44.43359375,-34.66796875,-21.484375,-41.9921875,0.0
1699138372.4675543,-32.71484375,-33.69140625,-18.5546875,-35.64453125,0.0
1699138372.4714513,-46.875,-45.8984375,-30.2734375,-39.55078125,0.0
1699138372.475348,-60.546875,-30.2734375,-41.015625,-49.8046875,0.0
1699138372.4793792,-41.9921875,-22.4609375,-35.15625,-39.0625,0.0
1699138372.4832761,-40.52734375,-28.3203125,-40.0390625,-36.62109375,0.0
1699138372.487173,-50.78125,-22.94921875,-43.45703125,-41.015625,0.0
1699138372.4910698,-64.94140625,-34.1796875,-23.92578125,-45.8984375,0.0
1699138372.4949667,-56.640625,-42.96875,-33.203125,-49.31640625,0.0
1699138372.4988637,-44.921875,-40.52734375,-42.96875,-44.43359375,0.0
1699138372.5027604,-37.109375,-35.64453125,-29.296875,-32.2265625,0.0
1699138372.5066574,-56.15234375,-35.64453125,-21.97265625,-36.1328125,0.0
1699138372.5105543,-51.26953125,-39.0625,-23.92578125,-28.80859375,0.0
1699138372.514451,-36.1328125,-38.0859375,-34.66796875,-26.3671875,0.0
1699138372.518348,-26.3671875,-28.80859375,-40.0390625,-28.80859375,0.0
1699138372.522245,-46.875,-31.73828125,-39.55078125,-29.78515625,0.0
1699138372.526264,-58.10546875,-41.9921875,-46.875,-36.1328125,0.0
1699138372.5301607,-38.57421875,-35.15625,-40.0390625,-29.78515625,0.0
1699138372.5340576,-26.3671875,-31.25,-31.25,-21.97265625,0.0
1699138372.5379546,-27.34375,-35.64453125,-35.64453125,-15.625,0.0
1699138372.5418513,-37.59765625,-37.109375,-47.36328125,-19.53125,0.0
1699138372.5457482,-35.15625,-37.109375,-43.9453125,-27.34375,0.0
1699138372.5496452,-24.90234375,-33.69140625,-29.296875,-22.4609375,0.0
1699138372.5535421,-18.06640625,-41.9921875,-18.06640625,-21.484375,0.0
1699138372.5574389,-36.62109375,-45.8984375,-20.99609375,-30.2734375,0.0
1699138372.5613358,-33.69140625,-28.80859375,-28.3203125,-26.3671875,0.0
1699138372.5652328,-24.90234375,-17.08984375,-23.92578125,-26.3671875,0.0
1699138372.5691297,-15.625,-14.6484375,-21.97265625,-26.85546875,0.0
1699138372.573133,-33.203125,-24.90234375,-26.85546875,-36.1328125,0.0
1699138372.57703,-32.2265625,-30.2734375,-38.0859375,-39.0625,0.0
1699138372.580927,-16.11328125,-14.6484375,-53.7109375,-30.2734375,0.0
1699138372.5848238,-11.23046875,-14.6484375,-39.0625,-27.83203125,0.0
1699138372.5887206,-28.80859375,-24.4140625,-17.578125,-37.109375,0.0
1699138372.5926175,-40.0390625,-25.87890625,-12.6953125,-42.48046875,0.0
1699138372.5965145,-29.78515625,-19.53125,-17.578125,-40.52734375,0.0
1699138372.6004114,-21.97265625,-27.34375,-33.69140625,-41.015625,0.0
1699138372.6043084,-34.1796875,-41.9921875,-31.73828125,-45.41015625,0.0
1699138372.608205,-44.43359375,-30.2734375,-16.11328125,-49.31640625,0.0
1699138372.612102,-26.85546875,-18.06640625,-22.4609375,-46.875,0.0
1699138372.615999,-17.578125,-25.390625,-31.25,-41.50390625,0.0
1699138372.620008,-21.97265625,-37.59765625,-24.90234375,-41.50390625,0.0
1699138372.623905,-42.48046875,-32.71484375,-27.34375,-47.36328125,0.0
1699138372.627802,-34.66796875,-27.34375,-28.80859375,-42.96875,0.0
1699138372.6316988,-32.71484375,-31.73828125,-36.1328125,-41.50390625,0.0
1699138372.6355958,-25.87890625,-40.52734375,-37.59765625,-39.0625,0.0
1699138372.6394925,-45.41015625,-46.875,-22.94921875,-40.52734375,0.0
1699138372.6433895,-45.41015625,-39.0625,-23.92578125,-37.59765625,0.0
1699138372.6472864,-32.2265625,-40.0390625,-29.78515625,-36.1328125,0.0
1699138372.6511834,-30.2734375,-35.15625,-30.2734375,-43.45703125,0.0
1699138372.6550803,-41.015625,-36.1328125,-28.3203125,-49.8046875,0.0
1699138372.6589773,-54.19921875,-41.9921875,-25.87890625,-45.8984375,0.0
1699138372.6628742,-41.015625,-38.57421875,-26.3671875,-37.109375,0.0
1699138372.666871,-30.2734375,-49.31640625,-36.62109375,-29.78515625,0.0
1699138372.6707678,-41.50390625,-41.015625,-35.15625,-28.80859375,0.0
1699138372.6746647,-48.33984375,-31.73828125,-29.296875,-30.76171875,0.0
1699138372.6785617,-37.109375,-41.015625,-35.64453125,-29.296875,0.0
1699138372.6824586,-35.64453125,-33.69140625,-34.1796875,-26.85546875,0.0
1699138372.6863556,-35.15625,-30.76171875,-28.3203125,-27.34375,0.0
1699138372.6902525,-49.31640625,-34.1796875,-25.390625,-30.76171875,0.0
1699138372.6941495,-40.52734375,-37.109375,-31.25,-24.90234375,0.0
1699138372.6980464,-25.390625,-27.83203125,-28.80859375,-16.6015625,0.0
1699138372.7019434,-17.08984375,-26.3671875,-32.71484375,-17.578125,0.0
1699138372.7058403,-36.1328125,-30.76171875,-42.48046875,-27.83203125,0.0
1699138372.7097373,-41.50390625,-25.87890625,-32.71484375,-31.25,0.0
1699138372.7137184,-35.15625,-32.71484375,-27.83203125,-37.59765625,0.0
1699138372.7176154,-20.5078125,-25.390625,-32.2265625,-31.73828125,0.0
1699138372.7215123,-27.34375,-20.5078125,-29.78515625,-34.66796875,0.0
1699138372.7254093,-51.26953125,-29.296875,-22.4609375,-39.55078125,0.0
1699138372.7293062,-39.0625,-20.01953125,-23.92578125,-26.85546875,0.0
1699138372.7332032,-18.5546875,-19.53125,-32.2265625,-30.2734375,0.0
1699138372.7371001,-23.92578125,-31.25,-30.76171875,-37.109375,0.0
1699138372.740997,-41.015625,-29.296875,-22.94921875,-32.2265625,0.0
1699138372.744894,-27.34375,-19.04296875,-20.99609375,-28.3203125,0.0
1699138372.748791,-12.6953125,-12.6953125,-29.296875,-27.34375,0.0
1699138372.752688,-9.27734375,-20.99609375,-32.71484375,-26.3671875,0.0
1699138372.756585,-38.57421875,-25.87890625,-32.2265625,-40.0390625,0.0
1699138372.7605522,-36.62109375,-16.6015625,-35.64453125,-37.59765625,0.0
1699138372.7644491,-17.08984375,-27.83203125,-39.55078125,-32.71484375,0.0
1699138372.768346,-16.11328125,-43.45703125,-23.92578125,-39.55078125,0.0
1699138372.772243,-32.71484375,-37.109375,-17.08984375,-39.55078125,0.0
1699138372.77614,-37.59765625,-29.296875,-28.3203125,-37.109375,0.0
1699138372.780037,-27.34375,-29.296875,-27.83203125,-33.203125,0.0
1699138372.7839339,-8.30078125,-20.99609375,-28.3203125,-21.97265625,0.0
1699138372.7878308,-18.5546875,-21.484375,-31.25,-27.83203125,0.0
1699138372.7917278,-38.57421875,-31.73828125,-31.73828125,-34.1796875,0.0
1699138372.7956247,-27.34375,-33.203125,-29.296875,-25.87890625,0.0
1699138372.7995217,-22.4609375,-30.76171875,-26.3671875,-21.97265625,0.0
1699138372.8034186,-31.25,-33.203125,-29.78515625,-29.296875,0.0
1699138372.8073914,-50.78125,-38.57421875,-28.80859375,-37.59765625,0.0
1699138372.8112884,-40.0390625,-38.0859375,-28.3203125,-30.2734375,0.0
1699138372.8151853,-27.83203125,-34.66796875,-22.4609375,-28.3203125,0.0
1699138372.8190823,-34.1796875,-34.1796875,-31.73828125,-27.83203125,0.0
1699138372.8229792,-54.19921875,-36.62109375,-37.59765625,-32.2265625,0.0
1699138372.8268762,-41.015625,-39.55078125,-25.87890625,-21.97265625,0.0
1699138372.830773,-23.4375,-34.1796875,-34.1796875,-20.01953125,0.0
1699138372.83467,-17.08984375,-34.1796875,-36.1328125,-23.4375,0.0
1699138372.838567,-37.109375,-34.66796875,-22.4609375,-27.83203125,0.0
1699138372.842464,-41.9921875,-28.80859375,-25.390625,-28.80859375,0.0
1699138372.846361,-25.87890625,-27.34375,-29.296875,-20.01953125,0.0
1699138372.8502579,-20.5078125,-23.92578125,-35.15625,-23.4375,0.0
1699138372.8542938,-41.015625,-29.296875,-56.640625,-36.1328125,0.0
1699138372.858191,-50.78125,-38.0859375,-50.29296875,-38.57421875,0.0
1699138372.862088,-34.1796875,-34.66796875,-31.25,-32.71484375,0.0
1699138372.865985,-23.4375,-35.15625,-30.76171875,-29.296875,0.0
1699138372.8698819,-25.390625,-40.0390625,-37.59765625,-31.25,0.0
1699138372.8737788,-47.36328125,-23.4375,-49.31640625,-48.828125,0.0
1699138372.8776758,-34.1796875,-14.16015625,-44.921875,-47.8515625,0.0
1699138372.8815727,-15.13671875,-22.4609375,-37.59765625,-38.0859375,0.0
1699138372.8854697,-11.71875,-26.85546875,-42.48046875,-39.0625,0.0
1699138372.8893669,-34.66796875,-25.87890625,-40.0390625,-47.8515625,0.0
1699138372.8932638,-33.203125,-21.97265625,-31.73828125,-38.0859375,0.0
1699138372.8971608,-15.625,-15.625,-29.296875,-25.390625,0.0
1699138372.9011815,-6.8359375,-25.390625,-28.80859375,-21.484375,0.0
1699138372.9050784,-28.80859375,-31.25,-22.94921875,-27.34375,0.0
1699138372.9089754,-38.57421875,-22.4609375,-20.01953125,-27.83203125,0.0
1699138372.9128723,-18.5546875,-26.3671875,-38.0859375,-20.99609375,0.0
1699138372.9167695,-14.6484375,-40.52734375,-42.96875,-15.13671875,0.0
1699138372.9206665,-34.66796875,-43.9453125,-28.3203125,-19.53125,0.0
1699138372.9245634,-50.29296875,-30.76171875,-23.4375,-28.3203125,0.0
1699138372.9284604,-42.48046875,-35.15625,-22.94921875,-26.85546875,0.0
1699138372.9323573,-28.80859375,-40.0390625,-17.08984375,-15.625,0.0
1699138372.9362545,-22.94921875,-38.0859375,-12.6953125,-13.18359375,0.0
1699138372.9401515,-49.31640625,-38.0859375,-16.6015625,-30.76171875,0.0
1699138372.9440484,-41.50390625,-27.34375,-18.5546875,-23.92578125,0.0
1699138372.948056,-29.78515625,-33.203125,-20.5078125,-18.5546875,0.0
1699138372.951953,-27.34375,-41.015625,-24.90234375,-20.99609375,0.0
1699138372.95585,-44.921875,-34.66796875,-36.62109375,-27.83203125,0.0
1699138372.959747,-44.43359375,-37.59765625,-36.1328125,-27.83203125,0.0
1699138372.963644,-29.78515625,-32.71484375,-28.80859375,-26.85546875,0.0
1699138372.967541,-24.90234375,-21.484375,-35.15625,-30.76171875,0.0
1699138372.971438,-37.109375,-28.3203125,-23.4375,-37.59765625,0.0
1699138372.9753351,-41.50390625,-36.1328125,-13.18359375,-46.38671875,0.0
1699138372.979232,-35.15625,-27.34375,-20.01953125,-44.43359375,0.0
1699138372.983129,-29.78515625,-18.5546875,-26.3671875,-40.0390625,0.0
1699138372.987026,-38.57421875,-26.3671875,-35.15625,-44.921875,0.0
1699138372.9909232,-50.78125,-35.64453125,-35.64453125,-49.31640625,0.0
1699138372.9949179,-36.62109375,-33.203125,-36.1328125,-48.828125,0.0
1699138372.9988148,-23.92578125,-29.296875,-52.734375,-45.8984375,0.0
1699138373.002712,-19.53125,-34.66796875,-52.24609375,-45.41015625,0.0
1699138373.006609,-39.55078125,-39.0625,-44.43359375,-51.7578125,0.0
1699138373.010506,-28.80859375,-30.76171875,-44.43359375,-43.9453125,0.0
1699138373.014403,-17.578125,-28.80859375,-39.0625,-31.73828125,0.0
1699138373.0183,-15.625,-27.83203125,-34.1796875,-30.2734375,0.0
1699138373.022197,-36.62109375,-18.06640625,-34.66796875,-38.0859375,0.0
1699138373.026094,-39.0625,-22.94921875,-35.64453125,-31.25,0.0
1699138373.0299911,-21.484375,-36.1328125,-32.71484375,-21.484375,0.0
1699138373.033888,-20.99609375,-36.62109375,-29.78515625,-20.01953125,0.0
1699138373.037785,-49.31640625,-29.296875,-25.87890625,-24.4140625,0.0
1699138373.041785,-63.96484375,-27.83203125,-27.83203125,-21.484375,0.0
1699138373.045682,-50.29296875,-23.4375,-52.24609375,-16.11328125,0.0
1699138373.0495791,-40.0390625,-28.80859375,-38.57421875,-12.20703125,0.0
1699138373.053476,-46.875,-46.38671875,-16.11328125,-18.06640625,0.0
1699138373.057373,-63.4765625,-45.8984375,-24.4140625,-27.83203125,0.0
1699138373.0612702,-48.33984375,-35.64453125,-30.76171875,-19.53125,0.0
1699138373.0651672,-34.66796875,-40.0390625,-26.85546875,-9.27734375,0.0
1699138373.0690641,-34.66796875,-47.8515625,-22.94921875,-4.8828125,0.0
1699138373.0729613,-61.5234375,-39.55078125,-20.99609375,-19.04296875,0.0
1699138373.0768583,-55.6640625,-34.66796875,-22.94921875,-21.484375,0.0
1699138373.0807555,-37.109375,-42.96875,-25.390625,-10.25390625,0.0
1699138373.0846524,-32.71484375,-44.921875,-22.4609375,-12.20703125,0.0
1699138373.088637,-44.921875,-41.015625,-30.76171875,-20.99609375,0.0
1699138373.092534,-40.52734375,-38.0859375,-29.78515625,-20.99609375,0.0
1699138373.0964313,-26.85546875,-27.83203125,-28.3203125,-11.71875,0.0
1699138373.1003282,-12.6953125,-16.6015625,-28.3203125,-9.765625,0.0
1699138373.1042254,-17.08984375,-27.34375,-39.55078125,-17.578125,0.0
1699138373.1081223,-32.2265625,-27.83203125,-49.8046875,-30.76171875,0.0
1699138373.1120193,-28.80859375,-17.578125,-33.203125,-29.78515625,0.0
1699138373.1159165,-15.13671875,-28.80859375,-24.90234375,-23.92578125,0.0
1699138373.1198134,-10.7421875,-28.80859375,-27.83203125,-29.78515625,0.0
1699138373.1237106,-33.203125,-25.390625,-30.2734375,-41.50390625,0.0
1699138373.1276076,-24.4140625,-31.25,-22.94921875,-36.62109375,0.0
1699138373.1315048,-12.6953125,-39.55078125,-19.53125,-29.78515625,0.0
1699138373.1354752,-9.765625,-31.73828125,-24.4140625,-27.34375,0.0
1699138373.139372,-35.15625,-20.99609375,-27.83203125,-30.76171875,0.0
1699138373.1432693,-39.0625,-28.3203125,-25.390625,-29.296875,0.0
1699138373.1471663,-26.3671875,-39.55078125,-34.66796875,-29.78515625,0.0
1699138373.1510632,-20.5078125,-36.1328125,-39.55078125,-31.73828125,0.0
1699138373.1549604,-45.8984375,-35.15625,-40.52734375,-40.0390625,0.0
1699138373.1588573,-59.5703125,-35.15625,-41.015625,-33.69140625,0.0
1699138373.1627545,-50.29296875,-29.78515625,-33.203125,-31.73828125,0.0
